# Wavelength is in Angstrom
# Fluxes are tabulated in units of erg/s/cm^2/A @ d=10pc
# wavelength    flux
  3.200000E+03  2.389581E-18
  3.202000E+03  5.499314E-18
  3.204000E+03 -6.812934E-19
  3.206000E+03  3.743293E-18
  3.208000E+03 -7.718542E-19
  3.210000E+03  3.700450E-18
  3.212000E+03  2.734948E-18
  3.214000E+03  4.363129E-18
  3.216000E+03  3.291970E-18
  3.218000E+03  3.574436E-20
  3.220000E+03 -1.741563E-19
  3.222000E+03  2.222334E-19
  3.224000E+03  1.933293E-18
  3.226000E+03  3.930456E-19
  3.228000E+03 -3.860250E-19
  3.230000E+03  1.890752E-18
  3.232000E+03 -7.415696E-19
  3.234000E+03  7.108445E-17
  3.236000E+03  6.711168E-17
  3.238000E+03  7.457006E-17
  3.240000E+03  8.064492E-17
  3.242000E+03  7.936653E-17
  3.244000E+03  7.899527E-17
  3.246000E+03  7.574842E-17
  3.248000E+03  7.855235E-17
  3.250000E+03  7.536092E-17
  3.252000E+03  7.538808E-17
  3.254000E+03  7.681022E-17
  3.256000E+03  7.528298E-17
  3.258000E+03  7.476068E-17
  3.260000E+03  7.457299E-17
  3.262000E+03  7.566033E-17
  3.264000E+03  7.526556E-17
  3.266000E+03  7.289165E-17
  3.268000E+03  7.612392E-17
  3.270000E+03  7.511250E-17
  3.272000E+03  7.441005E-17
  3.274000E+03  7.682238E-17
  3.276000E+03  7.599108E-17
  3.278000E+03  7.596583E-17
  3.280000E+03  7.513429E-17
  3.282000E+03  7.439784E-17
  3.284000E+03  7.330017E-17
  3.286000E+03  7.279224E-17
  3.288000E+03  7.333590E-17
  3.290000E+03  7.525209E-17
  3.292000E+03  7.417178E-17
  3.294000E+03  7.193334E-17
  3.296000E+03  7.256152E-17
  3.298000E+03  7.136155E-17
  3.300000E+03  7.227806E-17
  3.302000E+03  7.439884E-17
  3.304000E+03  7.509431E-17
  3.306000E+03  7.355475E-17
  3.308000E+03  7.251620E-17
  3.310000E+03  7.268924E-17
  3.312000E+03  7.192307E-17
  3.314000E+03  7.475749E-17
  3.316000E+03  7.417305E-17
  3.318000E+03  7.115879E-17
  3.320000E+03  7.404871E-17
  3.322000E+03  7.108207E-17
  3.324000E+03  7.205795E-17
  3.326000E+03  7.085641E-17
  3.328000E+03  7.153941E-17
  3.330000E+03  7.420281E-17
  3.332000E+03  7.106783E-17
  3.334000E+03  6.907725E-17
  3.336000E+03  7.067578E-17
  3.338000E+03  6.859243E-17
  3.340000E+03  7.089014E-17
  3.342000E+03  7.037116E-17
  3.344000E+03  6.977552E-17
  3.346000E+03  6.923862E-17
  3.348000E+03  6.855280E-17
  3.350000E+03  6.940482E-17
  3.352000E+03  6.798601E-17
  3.354000E+03  6.708879E-17
  3.356000E+03  6.976108E-17
  3.358000E+03  7.010221E-17
  3.360000E+03  6.961232E-17
  3.362000E+03  6.723516E-17
  3.364000E+03  6.874742E-17
  3.366000E+03  6.980277E-17
  3.368000E+03  6.960022E-17
  3.370000E+03  6.959992E-17
  3.372000E+03  7.015972E-17
  3.374000E+03  7.141618E-17
  3.376000E+03  6.854689E-17
  3.378000E+03  7.004578E-17
  3.380000E+03  6.848239E-17
  3.382000E+03  6.897059E-17
  3.384000E+03  7.001033E-17
  3.386000E+03  6.838207E-17
  3.388000E+03  7.153242E-17
  3.390000E+03  6.634989E-17
  3.392000E+03  6.787336E-17
  3.394000E+03  6.940643E-17
  3.396000E+03  6.837665E-17
  3.398000E+03  7.079664E-17
  3.400000E+03  6.944241E-17
  3.402000E+03  6.924103E-17
  3.404000E+03  6.873679E-17
  3.406000E+03  7.144937E-17
  3.408000E+03  6.782677E-17
  3.410000E+03  6.895911E-17
  3.412000E+03  6.840225E-17
  3.414000E+03  6.932133E-17
  3.416000E+03  6.940331E-17
  3.418000E+03  6.830148E-17
  3.420000E+03  7.048600E-17
  3.422000E+03  6.754783E-17
  3.424000E+03  7.025555E-17
  3.426000E+03  6.595803E-17
  3.428000E+03  6.899735E-17
  3.430000E+03  7.026473E-17
  3.432000E+03  6.892021E-17
  3.434000E+03  6.629177E-17
  3.436000E+03  6.994019E-17
  3.438000E+03 -4.485919E-15
  3.440000E+03  8.027838E-15
  3.442000E+03  1.372324E-13
  3.444000E+03  4.000228E-13
  3.446000E+03  4.288141E-13
  3.448000E+03  5.101092E-13
  3.450000E+03  6.303506E-13
  3.452000E+03  7.545966E-13
  3.454000E+03  8.450136E-13
  3.456000E+03  9.263364E-13
  3.458000E+03  9.619355E-13
  3.460000E+03  9.605651E-13
  3.462000E+03  9.350089E-13
  3.464000E+03  9.411153E-13
  3.466000E+03  9.102799E-13
  3.468000E+03  9.068933E-13
  3.470000E+03  9.185242E-13
  3.472000E+03  8.917171E-13
  3.474000E+03  9.258866E-13
  3.476000E+03  8.949565E-13
  3.478000E+03  9.060456E-13
  3.480000E+03  8.940095E-13
  3.482000E+03  9.032692E-13
  3.484000E+03  8.810360E-13
  3.486000E+03  8.888753E-13
  3.488000E+03  8.885724E-13
  3.490000E+03  8.892006E-13
  3.492000E+03  8.872053E-13
  3.494000E+03  8.886955E-13
  3.496000E+03  8.778568E-13
  3.498000E+03  8.837710E-13
  3.500000E+03  8.918045E-13
  3.502000E+03  8.769989E-13
  3.504000E+03  8.755244E-13
  3.506000E+03  8.623877E-13
  3.508000E+03  8.685444E-13
  3.510000E+03  8.651384E-13
  3.512000E+03  8.609361E-13
  3.514000E+03  8.432780E-13
  3.516000E+03  8.727558E-13
  3.518000E+03  8.604596E-13
  3.520000E+03  8.568944E-13
  3.522000E+03  8.362029E-13
  3.524000E+03  8.544602E-13
  3.526000E+03  8.412880E-13
  3.528000E+03  8.449939E-13
  3.530000E+03  8.508068E-13
  3.532000E+03  8.498851E-13
  3.534000E+03  8.373424E-13
  3.536000E+03  8.292317E-13
  3.538000E+03  8.242972E-13
  3.540000E+03  8.212488E-13
  3.542000E+03  8.333421E-13
  3.544000E+03  8.176602E-13
  3.546000E+03  8.223837E-13
  3.548000E+03  8.305482E-13
  3.550000E+03  8.071934E-13
  3.552000E+03  8.169205E-13
  3.554000E+03  8.285776E-13
  3.556000E+03  7.983778E-13
  3.558000E+03  8.167001E-13
  3.560000E+03  8.088839E-13
  3.562000E+03  8.234989E-13
  3.564000E+03  8.105448E-13
  3.566000E+03  8.196153E-13
  3.568000E+03  8.075573E-13
  3.570000E+03  8.028822E-13
  3.572000E+03  8.032123E-13
  3.574000E+03  8.047965E-13
  3.576000E+03  8.000394E-13
  3.578000E+03  7.958490E-13
  3.580000E+03  7.998709E-13
  3.582000E+03  8.076483E-13
  3.584000E+03  8.056483E-13
  3.586000E+03  8.042161E-13
  3.588000E+03  7.996245E-13
  3.590000E+03  7.994213E-13
  3.592000E+03  7.923741E-13
  3.594000E+03  7.965469E-13
  3.596000E+03  7.796762E-13
  3.598000E+03  7.821779E-13
  3.600000E+03  7.951170E-13
  3.602000E+03  7.921914E-13
  3.604000E+03  7.761743E-13
  3.606000E+03  7.717174E-13
  3.608000E+03  7.822319E-13
  3.610000E+03  7.633693E-13
  3.612000E+03  7.743269E-13
  3.614000E+03  7.661952E-13
  3.616000E+03  7.563637E-13
  3.618000E+03  7.672104E-13
  3.620000E+03  7.635386E-13
  3.622000E+03  7.668972E-13
  3.624000E+03  7.617977E-13
  3.626000E+03  7.592103E-13
  3.628000E+03  7.506689E-13
  3.630000E+03  7.615081E-13
  3.632000E+03  7.625777E-13
  3.634000E+03  7.673241E-13
  3.636000E+03  7.429871E-13
  3.638000E+03  7.506171E-13
  3.640000E+03  7.440073E-13
  3.642000E+03  7.539963E-13
  3.644000E+03  7.307267E-13
  3.646000E+03  7.459806E-13
  3.648000E+03  7.397044E-13
  3.650000E+03  7.468543E-13
  3.652000E+03  7.452030E-13
  3.654000E+03  7.326403E-13
  3.656000E+03  7.423881E-13
  3.658000E+03  7.251749E-13
  3.660000E+03  7.178256E-13
  3.662000E+03  7.257222E-13
  3.664000E+03  7.307122E-13
  3.666000E+03  7.172177E-13
  3.668000E+03  7.205724E-13
  3.670000E+03  7.223135E-13
  3.672000E+03  7.129212E-13
  3.674000E+03  7.038922E-13
  3.676000E+03  7.126942E-13
  3.678000E+03  6.938115E-13
  3.680000E+03  7.075645E-13
  3.682000E+03  7.003204E-13
  3.684000E+03  6.950992E-13
  3.686000E+03  7.010142E-13
  3.688000E+03  7.031071E-13
  3.690000E+03  7.029031E-13
  3.692000E+03  7.018731E-13
  3.694000E+03  6.956681E-13
  3.696000E+03  6.925184E-13
  3.698000E+03  6.876814E-13
  3.700000E+03  6.968083E-13
  3.702000E+03  6.768881E-13
  3.704000E+03  6.934226E-13
  3.706000E+03  6.880661E-13
  3.708000E+03  6.954547E-13
  3.710000E+03  6.938735E-13
  3.712000E+03  6.976656E-13
  3.714000E+03  6.795248E-13
  3.716000E+03  6.832115E-13
  3.718000E+03  6.766815E-13
  3.720000E+03  6.785600E-13
  3.722000E+03  6.786684E-13
  3.724000E+03  6.859943E-13
  3.726000E+03  6.473290E-13
  3.728000E+03  6.586721E-13
  3.730000E+03  6.819101E-13
  3.732000E+03  6.666341E-13
  3.734000E+03  6.588644E-13
  3.736000E+03  6.573431E-13
  3.738000E+03  6.660936E-13
  3.740000E+03  6.715616E-13
  3.742000E+03  6.610017E-13
  3.744000E+03  6.434611E-13
  3.746000E+03  6.485408E-13
  3.748000E+03  6.359277E-13
  3.750000E+03  6.376380E-13
  3.752000E+03  6.340093E-13
  3.754000E+03  6.370154E-13
  3.756000E+03  6.496453E-13
  3.758000E+03  6.411880E-13
  3.760000E+03  6.348546E-13
  3.762000E+03  6.385958E-13
  3.764000E+03  6.306447E-13
  3.766000E+03  6.288254E-13
  3.768000E+03  6.236657E-13
  3.770000E+03  6.181374E-13
  3.772000E+03  6.171684E-13
  3.774000E+03  6.204111E-13
  3.776000E+03  6.299474E-13
  3.778000E+03  6.208109E-13
  3.780000E+03  6.201697E-13
  3.782000E+03  6.201806E-13
  3.784000E+03  6.175148E-13
  3.786000E+03  6.296252E-13
  3.788000E+03  6.141387E-13
  3.790000E+03  6.154618E-13
  3.792000E+03  6.150161E-13
  3.794000E+03  6.077864E-13
  3.796000E+03  5.996866E-13
  3.798000E+03  5.944543E-13
  3.800000E+03  6.033484E-13
  3.802000E+03  5.922488E-13
  3.804000E+03  6.080845E-13
  3.806000E+03  6.073415E-13
  3.808000E+03  6.087297E-13
  3.810000E+03  6.189891E-13
  3.812000E+03  6.193783E-13
  3.814000E+03  6.373447E-13
  3.816000E+03  6.240557E-13
  3.818000E+03  6.246456E-13
  3.820000E+03  6.275181E-13
  3.822000E+03  6.187284E-13
  3.824000E+03  6.186731E-13
  3.826000E+03  6.146327E-13
  3.828000E+03  6.162838E-13
  3.830000E+03  5.995847E-13
  3.832000E+03  5.767985E-13
  3.834000E+03  5.751864E-13
  3.836000E+03  5.768716E-13
  3.838000E+03  5.722465E-13
  3.840000E+03  5.850745E-13
  3.842000E+03  5.945690E-13
  3.844000E+03  6.161975E-13
  3.846000E+03  6.191827E-13
  3.848000E+03  6.262555E-13
  3.850000E+03  6.281309E-13
  3.852000E+03  6.331778E-13
  3.854000E+03  6.334577E-13
  3.856000E+03  6.250534E-13
  3.858000E+03  6.230592E-13
  3.860000E+03  6.341979E-13
  3.862000E+03  6.484671E-13
  3.864000E+03  6.290734E-13
  3.866000E+03  6.189103E-13
  3.868000E+03  6.392693E-13
  3.870000E+03  6.298445E-13
  3.872000E+03  6.093055E-13
  3.874000E+03  6.092933E-13
  3.876000E+03  6.046459E-13
  3.878000E+03  5.940638E-13
  3.880000E+03  5.941820E-13
  3.882000E+03  5.752882E-13
  3.884000E+03  5.674818E-13
  3.886000E+03  5.353589E-13
  3.888000E+03  5.121227E-13
  3.890000E+03  5.010610E-13
  3.892000E+03  5.318849E-13
  3.894000E+03  5.415613E-13
  3.896000E+03  5.472846E-13
  3.898000E+03  5.681749E-13
  3.900000E+03  5.857158E-13
  3.902000E+03  5.891857E-13
  3.904000E+03  5.963095E-13
  3.906000E+03  5.882995E-13
  3.908000E+03  6.062794E-13
  3.910000E+03  6.012492E-13
  3.912000E+03  6.021428E-13
  3.914000E+03  6.102780E-13
  3.916000E+03  6.027012E-13
  3.918000E+03  5.978782E-13
  3.920000E+03  6.061401E-13
  3.922000E+03  6.095892E-13
  3.924000E+03  5.990709E-13
  3.926000E+03  5.983157E-13
  3.928000E+03  5.963828E-13
  3.930000E+03  5.933052E-13
  3.932000E+03  5.926843E-13
  3.934000E+03  5.899270E-13
  3.936000E+03  5.936337E-13
  3.938000E+03  5.916891E-13
  3.940000E+03  5.847621E-13
  3.942000E+03  5.827313E-13
  3.944000E+03  5.837941E-13
  3.946000E+03  5.846010E-13
  3.948000E+03  5.791949E-13
  3.950000E+03  5.709663E-13
  3.952000E+03  5.634509E-13
  3.954000E+03  5.636760E-13
  3.956000E+03  5.513053E-13
  3.958000E+03  5.428165E-13
  3.960000E+03  5.384147E-13
  3.962000E+03  5.252438E-13
  3.964000E+03  5.080608E-13
  3.966000E+03  4.838259E-13
  3.968000E+03  4.524686E-13
  3.970000E+03  4.328428E-13
  3.972000E+03  4.382216E-13
  3.974000E+03  4.652086E-13
  3.976000E+03  4.937180E-13
  3.978000E+03  5.058280E-13
  3.980000E+03  5.220442E-13
  3.982000E+03  5.301427E-13
  3.984000E+03  5.291886E-13
  3.986000E+03  5.458267E-13
  3.988000E+03  5.484965E-13
  3.990000E+03  5.547765E-13
  3.992000E+03  5.605100E-13
  3.994000E+03  5.512594E-13
  3.996000E+03  5.554432E-13
  3.998000E+03  5.666749E-13
  4.000000E+03  5.629166E-13
  4.002000E+03  5.624048E-13
  4.004000E+03  5.602991E-13
  4.006000E+03  5.618016E-13
  4.008000E+03  5.703823E-13
  4.010000E+03  5.711198E-13
  4.012000E+03  5.687936E-13
  4.014000E+03  5.641493E-13
  4.016000E+03  5.643472E-13
  4.018000E+03  5.706871E-13
  4.020000E+03  5.585497E-13
  4.022000E+03  5.641271E-13
  4.024000E+03  5.608093E-13
  4.026000E+03  5.448710E-13
  4.028000E+03  5.478368E-13
  4.030000E+03  5.571867E-13
  4.032000E+03  5.623036E-13
  4.034000E+03  5.550736E-13
  4.036000E+03  5.613727E-13
  4.038000E+03  5.554196E-13
  4.040000E+03  5.559669E-13
  4.042000E+03  5.566789E-13
  4.044000E+03  5.599307E-13
  4.046000E+03  5.506044E-13
  4.048000E+03  5.542024E-13
  4.050000E+03  5.414959E-13
  4.052000E+03  5.475833E-13
  4.054000E+03  5.550302E-13
  4.056000E+03  5.457484E-13
  4.058000E+03  5.477512E-13
  4.060000E+03  5.462329E-13
  4.062000E+03  5.348506E-13
  4.064000E+03  5.422812E-13
  4.066000E+03  5.426233E-13
  4.068000E+03  5.414545E-13
  4.070000E+03  5.355387E-13
  4.072000E+03  5.404581E-13
  4.074000E+03  5.343298E-13
  4.076000E+03  5.202806E-13
  4.078000E+03  5.191027E-13
  4.080000E+03  5.214576E-13
  4.082000E+03  5.151027E-13
  4.084000E+03  5.116512E-13
  4.086000E+03  4.955944E-13
  4.088000E+03  4.943940E-13
  4.090000E+03  4.882906E-13
  4.092000E+03  4.806795E-13
  4.094000E+03  4.588951E-13
  4.096000E+03  4.457450E-13
  4.098000E+03  4.196176E-13
  4.100000E+03  3.840308E-13
  4.102000E+03  3.598813E-13
  4.104000E+03  3.763039E-13
  4.106000E+03  4.105197E-13
  4.108000E+03  4.336407E-13
  4.110000E+03  4.461263E-13
  4.112000E+03  4.608573E-13
  4.114000E+03  4.687820E-13
  4.116000E+03  4.739796E-13
  4.118000E+03  4.839866E-13
  4.120000E+03  4.881843E-13
  4.122000E+03  4.871682E-13
  4.124000E+03  4.919691E-13
  4.126000E+03  4.962229E-13
  4.128000E+03  4.941159E-13
  4.130000E+03  4.941878E-13
  4.132000E+03  4.902352E-13
  4.134000E+03  4.948527E-13
  4.136000E+03  4.924728E-13
  4.138000E+03  4.958303E-13
  4.140000E+03  4.907029E-13
  4.142000E+03  4.956418E-13
  4.144000E+03  4.943751E-13
  4.146000E+03  4.959103E-13
  4.148000E+03  4.945282E-13
  4.150000E+03  4.865530E-13
  4.152000E+03  4.960647E-13
  4.154000E+03  4.969717E-13
  4.156000E+03  5.017774E-13
  4.158000E+03  4.983498E-13
  4.160000E+03  4.965957E-13
  4.162000E+03  4.994073E-13
  4.164000E+03  4.874000E-13
  4.166000E+03  4.974907E-13
  4.168000E+03  4.867598E-13
  4.170000E+03  4.941720E-13
  4.172000E+03  4.879026E-13
  4.174000E+03  4.911402E-13
  4.176000E+03  4.836387E-13
  4.178000E+03  4.867002E-13
  4.180000E+03  4.855652E-13
  4.182000E+03  4.831324E-13
  4.184000E+03  4.882236E-13
  4.186000E+03  4.861065E-13
  4.188000E+03  4.816445E-13
  4.190000E+03  4.852820E-13
  4.192000E+03  4.765310E-13
  4.194000E+03  4.764852E-13
  4.196000E+03  4.698516E-13
  4.198000E+03  4.717339E-13
  4.200000E+03  4.664433E-13
  4.202000E+03  4.647528E-13
  4.204000E+03  4.721245E-13
  4.206000E+03  4.733910E-13
  4.208000E+03  4.707858E-13
  4.210000E+03  4.771829E-13
  4.212000E+03  4.707184E-13
  4.214000E+03  4.735382E-13
  4.216000E+03  4.668575E-13
  4.218000E+03  4.620820E-13
  4.220000E+03  4.734183E-13
  4.222000E+03  4.717302E-13
  4.224000E+03  4.664196E-13
  4.226000E+03  4.700058E-13
  4.228000E+03  4.637889E-13
  4.230000E+03  4.729404E-13
  4.232000E+03  4.656739E-13
  4.234000E+03  4.681995E-13
  4.236000E+03  4.743810E-13
  4.238000E+03  4.672758E-13
  4.240000E+03  4.625085E-13
  4.242000E+03  4.669442E-13
  4.244000E+03  4.640507E-13
  4.246000E+03  4.635695E-13
  4.248000E+03  4.618956E-13
  4.250000E+03  4.628258E-13
  4.252000E+03  4.642892E-13
  4.254000E+03  4.679205E-13
  4.256000E+03  4.654675E-13
  4.258000E+03  4.606610E-13
  4.260000E+03  4.553969E-13
  4.262000E+03  4.616838E-13
  4.264000E+03  4.576197E-13
  4.266000E+03  4.583913E-13
  4.268000E+03  4.627046E-13
  4.270000E+03  4.506912E-13
  4.272000E+03  4.552644E-13
  4.274000E+03  4.528495E-13
  4.276000E+03  4.512183E-13
  4.278000E+03  4.489439E-13
  4.280000E+03  4.357679E-13
  4.282000E+03  4.454747E-13
  4.284000E+03  4.419102E-13
  4.286000E+03  4.400634E-13
  4.288000E+03  4.395450E-13
  4.290000E+03  4.438064E-13
  4.292000E+03  4.395501E-13
  4.294000E+03  4.373218E-13
  4.296000E+03  4.368747E-13
  4.298000E+03  4.400800E-13
  4.300000E+03  4.321188E-13
  4.302000E+03  4.374419E-13
  4.304000E+03  4.331614E-13
  4.306000E+03  4.323776E-13
  4.308000E+03  4.278597E-13
  4.310000E+03  4.270204E-13
  4.312000E+03  4.277700E-13
  4.314000E+03  4.178034E-13
  4.316000E+03  4.260211E-13
  4.318000E+03  4.205079E-13
  4.320000E+03  4.171670E-13
  4.322000E+03  4.085712E-13
  4.324000E+03  4.160287E-13
  4.326000E+03  4.084567E-13
  4.328000E+03  3.987730E-13
  4.330000E+03  3.961866E-13
  4.332000E+03  3.813809E-13
  4.334000E+03  3.656917E-13
  4.336000E+03  3.497305E-13
  4.338000E+03  3.197990E-13
  4.340000E+03  2.912525E-13
  4.342000E+03  2.925858E-13
  4.344000E+03  3.242439E-13
  4.346000E+03  3.498639E-13
  4.348000E+03  3.628129E-13
  4.350000E+03  3.704278E-13
  4.352000E+03  3.842152E-13
  4.354000E+03  3.927612E-13
  4.356000E+03  3.980597E-13
  4.358000E+03  4.015686E-13
  4.360000E+03  4.007348E-13
  4.362000E+03  3.982934E-13
  4.364000E+03  4.058187E-13
  4.366000E+03  4.068934E-13
  4.368000E+03  4.037439E-13
  4.370000E+03  4.059575E-13
  4.372000E+03  4.039245E-13
  4.374000E+03  4.031545E-13
  4.376000E+03  4.056875E-13
  4.378000E+03  4.059839E-13
  4.380000E+03  4.042832E-13
  4.382000E+03  4.057712E-13
  4.384000E+03  4.022651E-13
  4.386000E+03  4.020057E-13
  4.388000E+03  4.006399E-13
  4.390000E+03  4.002517E-13
  4.392000E+03  4.005218E-13
  4.394000E+03  4.034458E-13
  4.396000E+03  4.009416E-13
  4.398000E+03  3.998550E-13
  4.400000E+03  4.001246E-13
  4.402000E+03  3.975583E-13
  4.404000E+03  3.966580E-13
  4.406000E+03  3.985012E-13
  4.408000E+03  3.947881E-13
  4.410000E+03  3.967735E-13
  4.412000E+03  3.936990E-13
  4.414000E+03  3.997255E-13
  4.416000E+03  3.943754E-13
  4.418000E+03  3.974682E-13
  4.420000E+03  3.986591E-13
  4.422000E+03  3.967198E-13
  4.424000E+03  3.932051E-13
  4.426000E+03  3.907826E-13
  4.428000E+03  3.932357E-13
  4.430000E+03  3.934229E-13
  4.432000E+03  3.887187E-13
  4.434000E+03  3.930183E-13
  4.436000E+03  3.922609E-13
  4.438000E+03  3.919059E-13
  4.440000E+03  3.909441E-13
  4.442000E+03  3.952235E-13
  4.444000E+03  3.870868E-13
  4.446000E+03  3.839243E-13
  4.448000E+03  3.870189E-13
  4.450000E+03  3.882040E-13
  4.452000E+03  3.889314E-13
  4.454000E+03  3.819819E-13
  4.456000E+03  3.829343E-13
  4.458000E+03  3.825861E-13
  4.460000E+03  3.822481E-13
  4.462000E+03  3.828631E-13
  4.464000E+03  3.823960E-13
  4.466000E+03  3.854119E-13
  4.468000E+03  3.738060E-13
  4.470000E+03  3.640290E-13
  4.472000E+03  3.486966E-13
  4.474000E+03  3.668781E-13
  4.476000E+03  3.715833E-13
  4.478000E+03  3.710439E-13
  4.480000E+03  3.679351E-13
  4.482000E+03  3.685295E-13
  4.484000E+03  3.713878E-13
  4.486000E+03  3.657643E-13
  4.488000E+03  3.698598E-13
  4.490000E+03  3.678178E-13
  4.492000E+03  3.717510E-13
  4.494000E+03  3.689309E-13
  4.496000E+03  3.719470E-13
  4.498000E+03  3.650275E-13
  4.500000E+03  3.657148E-13
  4.502000E+03  3.646342E-13
  4.504000E+03  3.646788E-13
  4.506000E+03  3.653622E-13
  4.508000E+03  3.638962E-13
  4.510000E+03  3.605325E-13
  4.512000E+03  3.699255E-13
  4.514000E+03  3.631918E-13
  4.516000E+03  3.628973E-13
  4.518000E+03  3.614554E-13
  4.520000E+03  3.632706E-13
  4.522000E+03  3.617571E-13
  4.524000E+03  3.629338E-13
  4.526000E+03  3.611237E-13
  4.528000E+03  3.611808E-13
  4.530000E+03  3.641061E-13
  4.532000E+03  3.604882E-13
  4.534000E+03  3.561847E-13
  4.536000E+03  3.534742E-13
  4.538000E+03  3.539985E-13
  4.540000E+03  3.515797E-13
  4.542000E+03  3.454656E-13
  4.544000E+03  3.494595E-13
  4.546000E+03  3.508191E-13
  4.548000E+03  3.498134E-13
  4.550000E+03  3.505126E-13
  4.552000E+03  3.555615E-13
  4.554000E+03  3.560924E-13
  4.556000E+03  3.537009E-13
  4.558000E+03  3.529153E-13
  4.560000E+03  3.572515E-13
  4.562000E+03  3.623069E-13
  4.564000E+03  3.539196E-13
  4.566000E+03  3.648637E-13
  4.568000E+03  3.578785E-13
  4.570000E+03  3.525136E-13
  4.572000E+03  3.496362E-13
  4.574000E+03  3.425315E-13
  4.576000E+03  3.536940E-13
  4.578000E+03  3.546603E-13
  4.580000E+03  3.492785E-13
  4.582000E+03  3.467516E-13
  4.584000E+03  3.472221E-13
  4.586000E+03  3.382432E-13
  4.588000E+03  3.412527E-13
  4.590000E+03  3.432209E-13
  4.592000E+03  3.441017E-13
  4.594000E+03  3.443703E-13
  4.596000E+03  3.335819E-13
  4.598000E+03  3.335712E-13
  4.600000E+03  3.345995E-13
  4.602000E+03  3.421145E-13
  4.604000E+03  3.389192E-13
  4.606000E+03  3.335395E-13
  4.608000E+03  3.322484E-13
  4.610000E+03  3.312938E-13
  4.612000E+03  3.310746E-13
  4.614000E+03  3.340654E-13
  4.616000E+03  3.309005E-13
  4.618000E+03  3.265695E-13
  4.620000E+03  3.345326E-13
  4.622000E+03  3.181313E-13
  4.624000E+03  3.236221E-13
  4.626000E+03  3.181305E-13
  4.628000E+03  3.107433E-13
  4.630000E+03  3.158148E-13
  4.632000E+03  3.185325E-13
  4.634000E+03  3.118773E-13
  4.636000E+03  3.087864E-13
  4.638000E+03  3.214545E-13
  4.640000E+03  3.159342E-13
  4.642000E+03  3.173306E-13
  4.644000E+03  3.196556E-13
  4.646000E+03  3.150968E-13
  4.648000E+03  3.211259E-13
  4.650000E+03  3.237853E-13
  4.652000E+03  3.188498E-13
  4.654000E+03  3.261353E-13
  4.656000E+03  3.200718E-13
  4.658000E+03  3.233610E-13
  4.660000E+03  3.161576E-13
  4.662000E+03  3.159466E-13
  4.664000E+03  3.098061E-13
  4.666000E+03  3.162300E-13
  4.668000E+03  3.209235E-13
  4.670000E+03  3.209128E-13
  4.672000E+03  3.155282E-13
  4.674000E+03  3.144384E-13
  4.676000E+03  3.116500E-13
  4.678000E+03  3.163306E-13
  4.680000E+03  3.096820E-13
  4.682000E+03  3.082902E-13
  4.684000E+03  2.848121E-13
  4.686000E+03  2.429655E-13
  4.688000E+03  2.726532E-13
  4.690000E+03  2.955776E-13
  4.692000E+03  3.138103E-13
  4.694000E+03  3.209018E-13
  4.696000E+03  3.136740E-13
  4.698000E+03  3.107730E-13
  4.700000E+03  3.229545E-13
  4.702000E+03  3.138645E-13
  4.704000E+03  3.132891E-13
  4.706000E+03  3.154934E-13
  4.708000E+03  3.156406E-13
  4.710000E+03  3.121832E-13
  4.712000E+03  3.100956E-13
  4.714000E+03  3.078224E-13
  4.716000E+03  3.083336E-13
  4.718000E+03  3.062960E-13
  4.720000E+03  3.059945E-13
  4.722000E+03  3.059982E-13
  4.724000E+03  3.072600E-13
  4.726000E+03  3.041326E-13
  4.728000E+03  2.986911E-13
  4.730000E+03  3.055990E-13
  4.732000E+03  3.026637E-13
  4.734000E+03  3.092797E-13
  4.736000E+03  3.061307E-13
  4.738000E+03  3.036320E-13
  4.740000E+03  3.042821E-13
  4.742000E+03  2.968766E-13
  4.744000E+03  2.939488E-13
  4.746000E+03  3.004334E-13
  4.748000E+03  3.064243E-13
  4.750000E+03  3.005291E-13
  4.752000E+03  2.946805E-13
  4.754000E+03  2.983412E-13
  4.756000E+03  3.028722E-13
  4.758000E+03  2.960139E-13
  4.760000E+03  3.016888E-13
  4.762000E+03  2.945550E-13
  4.764000E+03  2.908761E-13
  4.766000E+03  3.014168E-13
  4.768000E+03  2.898965E-13
  4.770000E+03  2.958302E-13
  4.772000E+03  2.971160E-13
  4.774000E+03  3.027856E-13
  4.776000E+03  2.949541E-13
  4.778000E+03  2.945213E-13
  4.780000E+03  2.942339E-13
  4.782000E+03  2.967096E-13
  4.784000E+03  3.028893E-13
  4.786000E+03  2.964768E-13
  4.788000E+03  2.940386E-13
  4.790000E+03  2.968436E-13
  4.792000E+03  2.899891E-13
  4.794000E+03  2.879787E-13
  4.796000E+03  2.958045E-13
  4.798000E+03  2.848848E-13
  4.800000E+03  2.840125E-13
  4.802000E+03  2.877077E-13
  4.804000E+03  2.948908E-13
  4.806000E+03  2.910168E-13
  4.808000E+03  2.862516E-13
  4.810000E+03  2.884102E-13
  4.812000E+03  2.853265E-13
  4.814000E+03  2.827044E-13
  4.816000E+03  2.815789E-13
  4.818000E+03  2.809598E-13
  4.820000E+03  2.796705E-13
  4.822000E+03  2.800480E-13
  4.824000E+03  2.780032E-13
  4.826000E+03  2.762656E-13
  4.828000E+03  2.725674E-13
  4.830000E+03  2.768951E-13
  4.832000E+03  2.783324E-13
  4.834000E+03  2.763724E-13
  4.836000E+03  2.736637E-13
  4.838000E+03  2.667529E-13
  4.840000E+03  2.703869E-13
  4.842000E+03  2.711675E-13
  4.844000E+03  2.705796E-13
  4.846000E+03  2.619525E-13
  4.848000E+03  2.557843E-13
  4.850000E+03  2.514685E-13
  4.852000E+03  2.476978E-13
  4.854000E+03  2.422209E-13
  4.856000E+03  2.322414E-13
  4.858000E+03  2.194271E-13
  4.860000E+03  2.005893E-13
  4.862000E+03  1.809460E-13
  4.864000E+03  1.944202E-13
  4.866000E+03  2.185407E-13
  4.868000E+03  2.338752E-13
  4.870000E+03  2.435237E-13
  4.872000E+03  2.458598E-13
  4.874000E+03  2.525805E-13
  4.876000E+03  2.549703E-13
  4.878000E+03  2.571340E-13
  4.880000E+03  2.596022E-13
  4.882000E+03  2.650904E-13
  4.884000E+03  2.619526E-13
  4.886000E+03  2.647295E-13
  4.888000E+03  2.613449E-13
  4.890000E+03  2.628937E-13
  4.892000E+03  2.608405E-13
  4.894000E+03  2.677315E-13
  4.896000E+03  2.648910E-13
  4.898000E+03  2.682976E-13
  4.900000E+03  2.635758E-13
  4.902000E+03  2.646359E-13
  4.904000E+03  2.710826E-13
  4.906000E+03  2.649799E-13
  4.908000E+03  2.628728E-13
  4.910000E+03  2.719166E-13
  4.912000E+03  2.675782E-13
  4.914000E+03  2.675928E-13
  4.916000E+03  2.719262E-13
  4.918000E+03  2.700923E-13
  4.920000E+03  2.646585E-13
  4.922000E+03  2.650883E-13
  4.924000E+03  2.640258E-13
  4.926000E+03  2.637856E-13
  4.928000E+03  2.633344E-13
  4.930000E+03  2.597882E-13
  4.932000E+03  2.665501E-13
  4.934000E+03  2.627708E-13
  4.936000E+03  2.571735E-13
  4.938000E+03  2.627693E-13
  4.940000E+03  2.614776E-13
  4.942000E+03  2.588199E-13
  4.944000E+03  2.577616E-13
  4.946000E+03  2.571785E-13
  4.948000E+03  2.528050E-13
  4.950000E+03  2.534213E-13
  4.952000E+03  2.581490E-13
  4.954000E+03  2.603343E-13
  4.956000E+03  2.566055E-13
  4.958000E+03  2.527822E-13
  4.960000E+03  2.555548E-13
  4.962000E+03  2.501922E-13
  4.964000E+03  2.532479E-13
  4.966000E+03  2.528469E-13
  4.968000E+03  2.536520E-13
  4.970000E+03  2.511988E-13
  4.972000E+03  2.524984E-13
  4.974000E+03  2.524210E-13
  4.976000E+03  2.499776E-13
  4.978000E+03  2.493517E-13
  4.980000E+03  2.485442E-13
  4.982000E+03  2.520508E-13
  4.984000E+03  2.475002E-13
  4.986000E+03  2.476261E-13
  4.988000E+03  2.472481E-13
  4.990000E+03  2.499601E-13
  4.992000E+03  2.483030E-13
  4.994000E+03  2.446005E-13
  4.996000E+03  2.415104E-13
  4.998000E+03  2.492561E-13
  5.000000E+03  2.533748E-13
  5.002000E+03  2.530383E-13
  5.004000E+03  2.473826E-13
  5.006000E+03  2.470883E-13
  5.008000E+03  2.420060E-13
  5.010000E+03  2.449826E-13
  5.012000E+03  2.425472E-13
  5.014000E+03  2.456371E-13
  5.016000E+03  2.397914E-13
  5.018000E+03  2.436137E-13
  5.020000E+03  2.442743E-13
  5.022000E+03  2.424156E-13
  5.024000E+03  2.450077E-13
  5.026000E+03  2.384161E-13
  5.028000E+03  2.410918E-13
  5.030000E+03  2.423677E-13
  5.032000E+03  2.405580E-13
  5.034000E+03  2.404600E-13
  5.036000E+03  2.395354E-13
  5.038000E+03  2.364999E-13
  5.040000E+03  2.398473E-13
  5.042000E+03  2.403686E-13
  5.044000E+03  2.385467E-13
  5.046000E+03  2.389602E-13
  5.048000E+03  2.385116E-13
  5.050000E+03  2.424308E-13
  5.052000E+03  2.408767E-13
  5.054000E+03  2.352140E-13
  5.056000E+03  2.354710E-13
  5.058000E+03  2.350558E-13
  5.060000E+03  2.340950E-13
  5.062000E+03  2.334872E-13
  5.064000E+03  2.378840E-13
  5.066000E+03  2.366733E-13
  5.068000E+03  2.333632E-13
  5.070000E+03  2.367090E-13
  5.072000E+03  2.377471E-13
  5.074000E+03  2.374302E-13
  5.076000E+03  2.353894E-13
  5.078000E+03  2.339904E-13
  5.080000E+03  2.353118E-13
  5.082000E+03  2.322538E-13
  5.084000E+03  2.310011E-13
  5.086000E+03  2.307894E-13
  5.088000E+03  2.309735E-13
  5.090000E+03  2.309641E-13
  5.092000E+03  2.333483E-13
  5.094000E+03  2.326453E-13
  5.096000E+03  2.308390E-13
  5.098000E+03  2.270296E-13
  5.100000E+03  2.303299E-13
  5.102000E+03  2.286473E-13
  5.104000E+03  2.282624E-13
  5.106000E+03  2.240806E-13
  5.108000E+03  2.280394E-13
  5.110000E+03  2.242004E-13
  5.112000E+03  2.235042E-13
  5.114000E+03  2.236069E-13
  5.116000E+03  2.254509E-13
  5.118000E+03  2.276832E-13
  5.120000E+03  2.251375E-13
  5.122000E+03  2.276314E-13
  5.124000E+03  2.244701E-13
  5.126000E+03  2.284546E-13
  5.128000E+03  2.281967E-13
  5.130000E+03  2.245282E-13
  5.132000E+03  2.279123E-13
  5.134000E+03  2.237053E-13
  5.136000E+03  2.235445E-13
  5.138000E+03  2.208303E-13
  5.140000E+03  2.259206E-13
  5.142000E+03  2.225117E-13
  5.144000E+03  2.228140E-13
  5.146000E+03  2.203830E-13
  5.148000E+03  2.235898E-13
  5.150000E+03  2.203240E-13
  5.152000E+03  2.215711E-13
  5.154000E+03  2.228990E-13
  5.156000E+03  2.246644E-13
  5.158000E+03  2.218127E-13
  5.160000E+03  2.215563E-13
  5.162000E+03  2.242630E-13
  5.164000E+03  2.199614E-13
  5.166000E+03  2.212300E-13
  5.168000E+03  2.203518E-13
  5.170000E+03  2.182318E-13
  5.172000E+03  2.143307E-13
  5.174000E+03  2.214162E-13
  5.176000E+03  2.191256E-13
  5.178000E+03  2.172516E-13
  5.180000E+03  2.182201E-13
  5.182000E+03  2.157234E-13
  5.184000E+03  2.195292E-13
  5.186000E+03  2.169940E-13
  5.188000E+03  2.152667E-13
  5.190000E+03  2.170401E-13
  5.192000E+03  2.152287E-13
  5.194000E+03  2.188984E-13
  5.196000E+03  2.160467E-13
  5.198000E+03  2.194126E-13
  5.200000E+03  2.156088E-13
  5.202000E+03  2.141586E-13
  5.204000E+03  2.152257E-13
  5.206000E+03  2.119996E-13
  5.208000E+03  2.145108E-13
  5.210000E+03  2.124307E-13
  5.212000E+03  2.140997E-13
  5.214000E+03  2.109342E-13
  5.216000E+03  2.128185E-13
  5.218000E+03  2.081796E-13
  5.220000E+03  2.114329E-13
  5.222000E+03  2.098170E-13
  5.224000E+03  2.092678E-13
  5.226000E+03  2.096043E-13
  5.228000E+03  2.076929E-13
  5.230000E+03  2.084187E-13
  5.232000E+03  2.083916E-13
  5.234000E+03  2.100042E-13
  5.236000E+03  2.092729E-13
  5.238000E+03  2.079432E-13
  5.240000E+03  2.058442E-13
  5.242000E+03  2.056485E-13
  5.244000E+03  2.055610E-13
  5.246000E+03  2.075474E-13
  5.248000E+03  2.045846E-13
  5.250000E+03  2.054016E-13
  5.252000E+03  2.036435E-13
  5.254000E+03  2.047513E-13
  5.256000E+03  2.042318E-13
  5.258000E+03  2.038661E-13
  5.260000E+03  2.036850E-13
  5.262000E+03  2.063685E-13
  5.264000E+03  2.037788E-13
  5.266000E+03  2.057222E-13
  5.268000E+03  2.021431E-13
  5.270000E+03  2.006851E-13
  5.272000E+03  2.030343E-13
  5.274000E+03  2.012776E-13
  5.276000E+03  1.996556E-13
  5.278000E+03  2.004464E-13
  5.280000E+03  1.997732E-13
  5.282000E+03  1.993067E-13
  5.284000E+03  1.992696E-13
  5.286000E+03  2.002493E-13
  5.288000E+03  2.017818E-13
  5.290000E+03  1.979448E-13
  5.292000E+03  2.005893E-13
  5.294000E+03  1.980410E-13
  5.296000E+03  1.962157E-13
  5.298000E+03  1.965653E-13
  5.300000E+03  1.973431E-13
  5.302000E+03  1.955433E-13
  5.304000E+03  2.003589E-13
  5.306000E+03  1.965558E-13
  5.308000E+03  1.962596E-13
  5.310000E+03  1.974072E-13
  5.312000E+03  1.942790E-13
  5.314000E+03  1.936263E-13
  5.316000E+03  1.992489E-13
  5.318000E+03  1.944453E-13
  5.320000E+03  1.987524E-13
  5.322000E+03  1.954567E-13
  5.324000E+03  1.932221E-13
  5.326000E+03  1.962496E-13
  5.328000E+03  1.943973E-13
  5.330000E+03  1.925749E-13
  5.332000E+03  1.937670E-13
  5.334000E+03  1.949351E-13
  5.336000E+03  1.921226E-13
  5.338000E+03  1.916875E-13
  5.340000E+03  1.924889E-13
  5.342000E+03  1.881860E-13
  5.344000E+03  1.868702E-13
  5.346000E+03  1.911690E-13
  5.348000E+03  1.948101E-13
  5.350000E+03  1.945246E-13
  5.352000E+03  1.892664E-13
  5.354000E+03  1.893742E-13
  5.356000E+03  1.912627E-13
  5.358000E+03  1.906368E-13
  5.360000E+03  1.889981E-13
  5.362000E+03  1.929742E-13
  5.364000E+03  1.884897E-13
  5.366000E+03  1.882556E-13
  5.368000E+03  1.917646E-13
  5.370000E+03  1.867431E-13
  5.372000E+03  1.883207E-13
  5.374000E+03  1.867940E-13
  5.376000E+03  1.859682E-13
  5.378000E+03  1.863115E-13
  5.380000E+03  1.830289E-13
  5.382000E+03  1.838952E-13
  5.384000E+03  1.885292E-13
  5.386000E+03  1.845522E-13
  5.388000E+03  1.802500E-13
  5.390000E+03  1.835577E-13
  5.392000E+03  1.818957E-13
  5.394000E+03  1.805050E-13
  5.396000E+03  1.839125E-13
  5.398000E+03  1.805331E-13
  5.400000E+03  1.845509E-13
  5.402000E+03  1.815734E-13
  5.404000E+03  1.770619E-13
  5.406000E+03  1.755124E-13
  5.408000E+03  1.737031E-13
  5.410000E+03  1.698826E-13
  5.412000E+03  1.629282E-13
  5.414000E+03  1.656561E-13
  5.416000E+03  1.725978E-13
  5.418000E+03  1.758741E-13
  5.420000E+03  1.773618E-13
  5.422000E+03  1.764632E-13
  5.424000E+03  1.786061E-13
  5.426000E+03  1.796080E-13
  5.428000E+03  1.798228E-13
  5.430000E+03  1.802741E-13
  5.432000E+03  1.801361E-13
  5.434000E+03  1.786159E-13
  5.436000E+03  1.781065E-13
  5.438000E+03  1.754760E-13
  5.440000E+03  1.789940E-13
  5.442000E+03  1.812128E-13
  5.444000E+03  1.810408E-13
  5.446000E+03  1.786503E-13
  5.448000E+03  1.783166E-13
  5.450000E+03  1.769562E-13
  5.452000E+03  1.762366E-13
  5.454000E+03  1.744520E-13
  5.456000E+03  1.757548E-13
  5.458000E+03  1.766162E-13
  5.460000E+03  1.762079E-13
  5.462000E+03  1.767349E-13
  5.464000E+03  1.745855E-13
  5.466000E+03  1.754969E-13
  5.468000E+03  1.743822E-13
  5.470000E+03  1.728714E-13
  5.472000E+03  1.762342E-13
  5.474000E+03  1.727484E-13
  5.476000E+03  1.772432E-13
  5.478000E+03  1.743778E-13
  5.480000E+03  1.767137E-13
  5.482000E+03  1.756279E-13
  5.484000E+03  1.715072E-13
  5.486000E+03  1.736013E-13
  5.488000E+03  1.727006E-13
  5.490000E+03  1.719685E-13
  5.492000E+03  1.749861E-13
  5.494000E+03  1.740935E-13
  5.496000E+03  1.703912E-13
  5.498000E+03  1.693465E-13
  5.500000E+03  1.686777E-13
  5.502000E+03  1.722275E-13
  5.504000E+03  1.695273E-13
  5.506000E+03  1.679856E-13
  5.508000E+03  1.680554E-13
  5.510000E+03  1.707711E-13
  5.512000E+03  1.696916E-13
  5.514000E+03  1.695837E-13
  5.516000E+03  1.677678E-13
  5.518000E+03  1.670755E-13
  5.520000E+03  1.659907E-13
  5.522000E+03  1.702013E-13
  5.524000E+03  1.681119E-13
  5.526000E+03  1.676376E-13
  5.528000E+03  1.689357E-13
  5.530000E+03  1.642709E-13
  5.532000E+03  1.656404E-13
  5.534000E+03  1.685320E-13
  5.536000E+03  1.650811E-13
  5.538000E+03  1.647821E-13
  5.540000E+03  1.680546E-13
  5.542000E+03  1.684933E-13
  5.544000E+03  1.628671E-13
  5.546000E+03  1.615506E-13
  5.548000E+03  1.626301E-13
  5.550000E+03  1.605122E-13
  5.552000E+03  1.562107E-13
  5.554000E+03  1.519025E-13
  5.556000E+03  1.547719E-13
  5.558000E+03  1.599082E-13
  5.560000E+03  1.585464E-13
  5.562000E+03  1.584108E-13
  5.564000E+03  1.603807E-13
  5.566000E+03  1.578798E-13
  5.568000E+03  1.608556E-13
  5.570000E+03  1.607759E-13
  5.572000E+03  1.578976E-13
  5.574000E+03  1.582846E-13
  5.576000E+03  1.570390E-13
  5.578000E+03  1.571932E-13
  5.580000E+03  1.563903E-13
  5.582000E+03  1.581029E-13
  5.584000E+03  1.564804E-13
  5.586000E+03  1.577170E-13
  5.588000E+03  1.572316E-13
  5.590000E+03  1.572029E-13
  5.592000E+03  1.562477E-13
  5.594000E+03  1.550376E-13
  5.596000E+03  1.533928E-13
  5.598000E+03  1.543339E-13
  5.600000E+03  1.547535E-13
  5.602000E+03  1.553808E-13
  5.604000E+03  1.540555E-13
  5.606000E+03  1.529582E-13
  5.608000E+03  1.537267E-13
  5.610000E+03  1.528296E-13
  5.612000E+03  1.532928E-13
  5.614000E+03  1.518898E-13
  5.616000E+03  1.500674E-13
  5.618000E+03  1.530165E-13
  5.620000E+03  1.520483E-13
  5.622000E+03  1.518315E-13
  5.624000E+03  1.512473E-13
  5.626000E+03  1.505026E-13
  5.628000E+03  1.514347E-13
  5.630000E+03  1.500775E-13
  5.632000E+03  1.506340E-13
  5.634000E+03  1.503798E-13
  5.636000E+03  1.500037E-13
  5.638000E+03  1.491430E-13
  5.640000E+03  1.489612E-13
  5.642000E+03  1.488450E-13
  5.644000E+03  1.503323E-13
  5.646000E+03  1.496947E-13
  5.648000E+03  1.484594E-13
  5.650000E+03  1.490625E-13
  5.652000E+03  1.480607E-13
  5.654000E+03  1.488695E-13
  5.656000E+03  1.468615E-13
  5.658000E+03  1.468821E-13
  5.660000E+03  1.484188E-13
  5.662000E+03  1.475660E-13
  5.664000E+03  1.476048E-13
  5.666000E+03  1.457274E-13
  5.668000E+03  1.445359E-13
  5.670000E+03  1.474929E-13
  5.672000E+03  1.483988E-13
  5.674000E+03  1.456435E-13
  5.676000E+03  1.466392E-13
  5.678000E+03  1.455676E-13
  5.680000E+03  1.449690E-13
  5.682000E+03  1.449425E-13
  5.684000E+03  1.436145E-13
  5.686000E+03  1.431225E-13
  5.688000E+03  1.446401E-13
  5.690000E+03  1.423452E-13
  5.692000E+03  1.431012E-13
  5.694000E+03  1.438786E-13
  5.696000E+03  1.444105E-13
  5.698000E+03  1.407904E-13
  5.700000E+03  1.421373E-13
  5.702000E+03  1.437618E-13
  5.704000E+03  1.440273E-13
  5.706000E+03  1.435665E-13
  5.708000E+03  1.429531E-13
  5.710000E+03  1.429168E-13
  5.712000E+03  1.419127E-13
  5.714000E+03  1.411851E-13
  5.716000E+03  1.407398E-13
  5.718000E+03  1.414386E-13
  5.720000E+03  1.410596E-13
  5.722000E+03  1.401447E-13
  5.724000E+03  1.412920E-13
  5.726000E+03  1.419065E-13
  5.728000E+03  1.394573E-13
  5.730000E+03  1.395520E-13
  5.732000E+03  1.395585E-13
  5.734000E+03  1.406976E-13
  5.736000E+03  1.407779E-13
  5.738000E+03  1.375860E-13
  5.740000E+03  1.383550E-13
  5.742000E+03  1.379724E-13
  5.744000E+03  1.391344E-13
  5.746000E+03  1.377356E-13
  5.748000E+03  1.398237E-13
  5.750000E+03  1.403446E-13
  5.752000E+03  1.379563E-13
  5.754000E+03  1.382099E-13
  5.756000E+03  1.395281E-13
  5.758000E+03  1.383959E-13
  5.760000E+03  1.350824E-13
  5.762000E+03  1.357746E-13
  5.764000E+03  1.365219E-13
  5.766000E+03  1.350619E-13
  5.768000E+03  1.362157E-13
  5.770000E+03  1.373500E-13
  5.772000E+03  1.350619E-13
  5.774000E+03  1.352668E-13
  5.776000E+03  1.370817E-13
  5.778000E+03  1.369111E-13
  5.780000E+03  1.356115E-13
  5.782000E+03  1.348417E-13
  5.784000E+03  1.367170E-13
  5.786000E+03  1.359669E-13
  5.788000E+03  1.354759E-13
  5.790000E+03  1.331283E-13
  5.792000E+03  1.344152E-13
  5.794000E+03  1.343889E-13
  5.796000E+03  1.342855E-13
  5.798000E+03  1.338597E-13
  5.800000E+03  1.337891E-13
  5.802000E+03  1.346143E-13
  5.804000E+03  1.340844E-13
  5.806000E+03  1.336633E-13
  5.808000E+03  1.349894E-13
  5.810000E+03  1.320627E-13
  5.812000E+03  1.338979E-13
  5.814000E+03  1.332927E-13
  5.816000E+03  1.335537E-13
  5.818000E+03  1.340302E-13
  5.820000E+03  1.334070E-13
  5.822000E+03  1.325573E-13
  5.824000E+03  1.321969E-13
  5.826000E+03  1.313150E-13
  5.828000E+03  1.317423E-13
  5.830000E+03  1.320641E-13
  5.832000E+03  1.305774E-13
  5.834000E+03  1.319417E-13
  5.836000E+03  1.321566E-13
  5.838000E+03  1.327718E-13
  5.840000E+03  1.309699E-13
  5.842000E+03  1.299195E-13
  5.844000E+03  1.284154E-13
  5.846000E+03  1.290076E-13
  5.848000E+03  1.294157E-13
  5.850000E+03  1.284198E-13
  5.852000E+03  1.288625E-13
  5.854000E+03  1.297303E-13
  5.856000E+03  1.296137E-13
  5.858000E+03  1.293892E-13
  5.860000E+03  1.277137E-13
  5.862000E+03  1.289333E-13
  5.864000E+03  1.288714E-13
  5.866000E+03  1.266568E-13
  5.868000E+03  1.256878E-13
  5.870000E+03  1.260831E-13
  5.872000E+03  1.236869E-13
  5.874000E+03  1.237872E-13
  5.876000E+03  1.091124E-13
  5.878000E+03  1.167042E-13
  5.880000E+03  1.223781E-13
  5.882000E+03  1.205580E-13
  5.884000E+03  1.207318E-13
  5.886000E+03  1.190302E-13
  5.888000E+03  1.174552E-13
  5.890000E+03  1.125330E-13
  5.892000E+03  1.162005E-13
  5.894000E+03  1.199659E-13
  5.896000E+03  1.155409E-13
  5.898000E+03  1.164785E-13
  5.900000E+03  1.148311E-13
  5.902000E+03  1.179349E-13
  5.904000E+03  1.207281E-13
  5.906000E+03  1.194235E-13
  5.908000E+03  1.188916E-13
  5.910000E+03  1.177929E-13
  5.912000E+03  1.193692E-13
  5.914000E+03  1.168230E-13
  5.916000E+03  1.178510E-13
  5.918000E+03  1.148814E-13
  5.920000E+03  1.128978E-13
  5.922000E+03  1.165473E-13
  5.924000E+03  1.123470E-13
  5.926000E+03  1.181627E-13
  5.928000E+03  1.189917E-13
  5.930000E+03  1.183099E-13
  5.932000E+03  1.162720E-13
  5.934000E+03  1.186394E-13
  5.936000E+03  1.192908E-13
  5.938000E+03  1.192329E-13
  5.940000E+03  1.149662E-13
  5.942000E+03  1.094449E-13
  5.944000E+03  1.143317E-13
  5.946000E+03  1.125705E-13
  5.948000E+03  1.133320E-13
  5.950000E+03  1.133875E-13
  5.952000E+03  1.159846E-13
  5.954000E+03  1.175643E-13
  5.956000E+03  1.165106E-13
  5.958000E+03  1.142317E-13
  5.960000E+03  1.167449E-13
  5.962000E+03  1.176254E-13
  5.964000E+03  1.171346E-13
  5.966000E+03  1.156197E-13
  5.968000E+03  1.136968E-13
  5.970000E+03  1.160354E-13
  5.972000E+03  1.177088E-13
  5.974000E+03  1.164957E-13
  5.976000E+03  1.139236E-13
  5.978000E+03  1.150859E-13
  5.980000E+03  1.162729E-13
  5.982000E+03  1.166325E-13
  5.984000E+03  1.175045E-13
  5.986000E+03  1.169243E-13
  5.988000E+03  1.161650E-13
  5.990000E+03  1.158288E-13
  5.992000E+03  1.172798E-13
  5.994000E+03  1.160266E-13
  5.996000E+03  1.187057E-13
  5.998000E+03  1.189710E-13
  6.000000E+03  1.176481E-13
  6.002000E+03  1.188139E-13
  6.004000E+03  1.165788E-13
  6.006000E+03  1.184758E-13
  6.008000E+03  1.176498E-13
  6.010000E+03  1.166394E-13
  6.012000E+03  1.159132E-13
  6.014000E+03  1.174790E-13
  6.016000E+03  1.175955E-13
  6.018000E+03  1.166376E-13
  6.020000E+03  1.164274E-13
  6.022000E+03  1.167268E-13
  6.024000E+03  1.160196E-13
  6.026000E+03  1.179051E-13
  6.028000E+03  1.169566E-13
  6.030000E+03  1.155535E-13
  6.032000E+03  1.158307E-13
  6.034000E+03  1.155288E-13
  6.036000E+03  1.162157E-13
  6.038000E+03  1.163545E-13
  6.040000E+03  1.157647E-13
  6.042000E+03  1.178515E-13
  6.044000E+03  1.152165E-13
  6.046000E+03  1.161592E-13
  6.048000E+03  1.153225E-13
  6.050000E+03  1.143975E-13
  6.052000E+03  1.152136E-13
  6.054000E+03  1.150231E-13
  6.056000E+03  1.142418E-13
  6.058000E+03  1.128692E-13
  6.060000E+03  1.143149E-13
  6.062000E+03  1.142392E-13
  6.064000E+03  1.147261E-13
  6.066000E+03  1.140001E-13
  6.068000E+03  1.140708E-13
  6.070000E+03  1.138969E-13
  6.072000E+03  1.124832E-13
  6.074000E+03  1.112950E-13
  6.076000E+03  1.110984E-13
  6.078000E+03  1.141923E-13
  6.080000E+03  1.122363E-13
  6.082000E+03  1.119977E-13
  6.084000E+03  1.108696E-13
  6.086000E+03  1.116711E-13
  6.088000E+03  1.127699E-13
  6.090000E+03  1.135204E-13
  6.092000E+03  1.112066E-13
  6.094000E+03  1.103685E-13
  6.096000E+03  1.115242E-13
  6.098000E+03  1.112590E-13
  6.100000E+03  1.116636E-13
  6.102000E+03  1.112715E-13
  6.104000E+03  1.091794E-13
  6.106000E+03  1.119918E-13
  6.108000E+03  1.114842E-13
  6.110000E+03  1.106075E-13
  6.112000E+03  1.106097E-13
  6.114000E+03  1.097561E-13
  6.116000E+03  1.105650E-13
  6.118000E+03  1.099257E-13
  6.120000E+03  1.086652E-13
  6.122000E+03  1.103061E-13
  6.124000E+03  1.117102E-13
  6.126000E+03  1.100043E-13
  6.128000E+03  1.084435E-13
  6.130000E+03  1.101165E-13
  6.132000E+03  1.080667E-13
  6.134000E+03  1.079917E-13
  6.136000E+03  9.773201E-14
  6.138000E+03  1.090006E-13
  6.140000E+03  1.096781E-13
  6.142000E+03  1.082655E-13
  6.144000E+03  1.087451E-13
  6.146000E+03  1.098181E-13
  6.148000E+03  1.080191E-13
  6.150000E+03  1.071668E-13
  6.152000E+03  1.071254E-13
  6.154000E+03  1.077957E-13
  6.156000E+03  1.093371E-13
  6.158000E+03  1.079129E-13
  6.160000E+03  1.068523E-13
  6.162000E+03  1.066649E-13
  6.164000E+03  1.070868E-13
  6.166000E+03  1.078979E-13
  6.168000E+03  1.072856E-13
  6.170000E+03  1.072659E-13
  6.172000E+03  1.079038E-13
  6.174000E+03  1.055751E-13
  6.176000E+03  1.071880E-13
  6.178000E+03  1.047051E-13
  6.180000E+03  1.061270E-13
  6.182000E+03  1.066435E-13
  6.184000E+03  1.060713E-13
  6.186000E+03  1.055783E-13
  6.188000E+03  1.044530E-13
  6.190000E+03  1.042740E-13
  6.192000E+03  1.052935E-13
  6.194000E+03  1.048366E-13
  6.196000E+03  1.042790E-13
  6.198000E+03  1.052981E-13
  6.200000E+03  1.045569E-13
  6.202000E+03  1.065907E-13
  6.204000E+03  1.040583E-13
  6.206000E+03  1.029016E-13
  6.208000E+03  1.026334E-13
  6.210000E+03  1.055972E-13
  6.212000E+03  1.041874E-13
  6.214000E+03  1.042263E-13
  6.216000E+03  1.030811E-13
  6.218000E+03  1.035399E-13
  6.220000E+03  1.039419E-13
  6.222000E+03  1.035938E-13
  6.224000E+03  1.021924E-13
  6.226000E+03  1.040898E-13
  6.228000E+03  1.034879E-13
  6.230000E+03  1.040606E-13
  6.232000E+03  1.028751E-13
  6.234000E+03  1.031718E-13
  6.236000E+03  1.028182E-13
  6.238000E+03  1.015341E-13
  6.240000E+03  1.033514E-13
  6.242000E+03  1.020703E-13
  6.244000E+03  1.013118E-13
  6.246000E+03  1.016040E-13
  6.248000E+03  1.022048E-13
  6.250000E+03  1.015228E-13
  6.252000E+03  1.006342E-13
  6.254000E+03  1.011949E-13
  6.256000E+03  1.009759E-13
  6.258000E+03  1.018794E-13
  6.260000E+03  1.009583E-13
  6.262000E+03  1.006376E-13
  6.264000E+03  1.008812E-13
  6.266000E+03  1.011484E-13
  6.268000E+03  9.958513E-14
  6.270000E+03  1.016284E-13
  6.272000E+03  9.942181E-14
  6.274000E+03  9.962488E-14
  6.276000E+03  9.398126E-14
  6.278000E+03  8.709941E-14
  6.280000E+03  9.145900E-14
  6.282000E+03  9.433972E-14
  6.284000E+03  9.547494E-14
  6.286000E+03  9.839256E-14
  6.288000E+03  9.571330E-14
  6.290000E+03  9.550386E-14
  6.292000E+03  9.479660E-14
  6.294000E+03  9.590115E-14
  6.296000E+03  9.484089E-14
  6.298000E+03  9.509027E-14
  6.300000E+03  9.846365E-14
  6.302000E+03  9.418995E-14
  6.304000E+03  9.607734E-14
  6.306000E+03  9.439225E-14
  6.308000E+03  9.547468E-14
  6.310000E+03  9.296688E-14
  6.312000E+03  9.757115E-14
  6.314000E+03  9.628773E-14
  6.316000E+03  9.705208E-14
  6.318000E+03  9.470130E-14
  6.320000E+03  9.569364E-14
  6.322000E+03  9.558898E-14
  6.324000E+03  9.465405E-14
  6.326000E+03  9.374679E-14
  6.328000E+03  9.446843E-14
  6.330000E+03  9.510565E-14
  6.332000E+03  9.426122E-14
  6.334000E+03  9.456335E-14
  6.336000E+03  9.515528E-14
  6.338000E+03  9.623488E-14
  6.340000E+03  9.585573E-14
  6.342000E+03  9.355511E-14
  6.344000E+03  9.621918E-14
  6.346000E+03  9.453922E-14
  6.348000E+03  9.419611E-14
  6.350000E+03  9.267649E-14
  6.352000E+03  9.470371E-14
  6.354000E+03  9.502940E-14
  6.356000E+03  9.570455E-14
  6.358000E+03  9.621530E-14
  6.360000E+03  9.544007E-14
  6.362000E+03  9.570735E-14
  6.364000E+03  9.515912E-14
  6.366000E+03  9.452137E-14
  6.368000E+03  9.350910E-14
  6.370000E+03  9.421255E-14
  6.372000E+03  9.561887E-14
  6.374000E+03  9.467175E-14
  6.376000E+03  9.308555E-14
  6.378000E+03  9.385572E-14
  6.380000E+03  9.638284E-14
  6.382000E+03  9.363138E-14
  6.384000E+03  9.301307E-14
  6.386000E+03  9.350294E-14
  6.388000E+03  9.498409E-14
  6.390000E+03  9.485467E-14
  6.392000E+03  9.394983E-14
  6.394000E+03  9.395323E-14
  6.396000E+03  9.300402E-14
  6.398000E+03  9.415360E-14
  6.400000E+03  9.490523E-14
  6.402000E+03  9.180576E-14
  6.404000E+03  9.237159E-14
  6.406000E+03  9.287364E-14
  6.408000E+03  9.247785E-14
  6.410000E+03  9.326192E-14
  6.412000E+03  9.119437E-14
  6.414000E+03  9.389170E-14
  6.416000E+03  9.371604E-14
  6.418000E+03  9.342883E-14
  6.420000E+03  9.098443E-14
  6.422000E+03  9.132722E-14
  6.424000E+03  9.265218E-14
  6.426000E+03  9.125170E-14
  6.428000E+03  9.236070E-14
  6.430000E+03  9.444886E-14
  6.432000E+03  9.226042E-14
  6.434000E+03  9.059560E-14
  6.436000E+03  9.284689E-14
  6.438000E+03  9.082372E-14
  6.440000E+03  9.105835E-14
  6.442000E+03  9.103789E-14
  6.444000E+03  9.213079E-14
  6.446000E+03  8.996228E-14
  6.448000E+03  9.173079E-14
  6.450000E+03  9.285452E-14
  6.452000E+03  9.191053E-14
  6.454000E+03  9.154340E-14
  6.456000E+03  9.025104E-14
  6.458000E+03  9.070754E-14
  6.460000E+03  9.012811E-14
  6.462000E+03  8.944786E-14
  6.464000E+03  8.987227E-14
  6.466000E+03  8.865662E-14
  6.468000E+03  8.903675E-14
  6.470000E+03  8.767616E-14
  6.472000E+03  8.704888E-14
  6.474000E+03  8.577956E-14
  6.476000E+03  8.725325E-14
  6.478000E+03  8.807871E-14
  6.480000E+03  8.872147E-14
  6.482000E+03  8.643877E-14
  6.484000E+03  8.708308E-14
  6.486000E+03  8.870944E-14
  6.488000E+03  8.845102E-14
  6.490000E+03  8.791949E-14
  6.492000E+03  8.775931E-14
  6.494000E+03  8.642791E-14
  6.496000E+03  8.892760E-14
  6.498000E+03  8.985264E-14
  6.500000E+03  8.992406E-14
  6.502000E+03  8.906242E-14
  6.504000E+03  8.839306E-14
  6.506000E+03  8.684244E-14
  6.508000E+03  8.790315E-14
  6.510000E+03  8.696995E-14
  6.512000E+03  8.610426E-14
  6.514000E+03  8.234729E-14
  6.516000E+03  8.379451E-14
  6.518000E+03  8.505941E-14
  6.520000E+03  8.722538E-14
  6.522000E+03  8.613499E-14
  6.524000E+03  8.747380E-14
  6.526000E+03  8.665913E-14
  6.528000E+03  8.717662E-14
  6.530000E+03  8.534903E-14
  6.532000E+03  8.404392E-14
  6.534000E+03  8.449143E-14
  6.536000E+03  8.623377E-14
  6.538000E+03  8.508480E-14
  6.540000E+03  8.497193E-14
  6.542000E+03  8.209272E-14
  6.544000E+03  8.142665E-14
  6.546000E+03  8.081228E-14
  6.548000E+03  8.103112E-14
  6.550000E+03  7.870424E-14
  6.552000E+03  7.729128E-14
  6.554000E+03  7.709757E-14
  6.556000E+03  7.267270E-14
  6.558000E+03  6.984510E-14
  6.560000E+03  6.561634E-14
  6.562000E+03  6.338614E-14
  6.564000E+03  6.428476E-14
  6.566000E+03  6.922718E-14
  6.568000E+03  7.278248E-14
  6.570000E+03  7.462323E-14
  6.572000E+03  7.585522E-14
  6.574000E+03  7.643284E-14
  6.576000E+03  8.018213E-14
  6.578000E+03  8.031175E-14
  6.580000E+03  8.116218E-14
  6.582000E+03  8.189531E-14
  6.584000E+03  8.081316E-14
  6.586000E+03  8.220448E-14
  6.588000E+03  8.346647E-14
  6.590000E+03  8.257823E-14
  6.592000E+03  8.277641E-14
  6.594000E+03  8.248352E-14
  6.596000E+03  8.271335E-14
  6.598000E+03  8.222346E-14
  6.600000E+03  8.268745E-14
  6.602000E+03  8.205917E-14
  6.604000E+03  8.207572E-14
  6.606000E+03  8.289524E-14
  6.608000E+03  8.299019E-14
  6.610000E+03  8.223890E-14
  6.612000E+03  8.236298E-14
  6.614000E+03  8.216089E-14
  6.616000E+03  8.311027E-14
  6.618000E+03  8.189729E-14
  6.620000E+03  8.330445E-14
  6.622000E+03  8.345570E-14
  6.624000E+03  8.142337E-14
  6.626000E+03  8.189867E-14
  6.628000E+03  8.296024E-14
  6.630000E+03  8.133048E-14
  6.632000E+03  8.273982E-14
  6.634000E+03  8.212354E-14
  6.636000E+03  8.253931E-14
  6.638000E+03  8.285916E-14
  6.640000E+03  8.326401E-14
  6.642000E+03  8.308280E-14
  6.644000E+03  8.183705E-14
  6.646000E+03  8.299966E-14
  6.648000E+03  8.288981E-14
  6.650000E+03  8.303632E-14
  6.652000E+03  8.276016E-14
  6.654000E+03  8.140949E-14
  6.656000E+03  8.328772E-14
  6.658000E+03  8.258473E-14
  6.660000E+03  8.217093E-14
  6.662000E+03  8.086040E-14
  6.664000E+03  8.138370E-14
  6.666000E+03  8.086114E-14
  6.668000E+03  8.087157E-14
  6.670000E+03  8.209314E-14
  6.672000E+03  8.081832E-14
  6.674000E+03  8.187066E-14
  6.676000E+03  8.215011E-14
  6.678000E+03  8.212173E-14
  6.680000E+03  8.225541E-14
  6.682000E+03  8.098621E-14
  6.684000E+03  8.229612E-14
  6.686000E+03  8.111447E-14
  6.688000E+03  8.161277E-14
  6.690000E+03  8.057933E-14
  6.692000E+03  8.106007E-14
  6.694000E+03  8.083571E-14
  6.696000E+03  8.080177E-14
  6.698000E+03  8.005275E-14
  6.700000E+03  8.048395E-14
  6.702000E+03  7.969840E-14
  6.704000E+03  7.980842E-14
  6.706000E+03  8.029354E-14
  6.708000E+03  8.014814E-14
  6.710000E+03  8.019375E-14
  6.712000E+03  8.024430E-14
  6.714000E+03  8.009961E-14
  6.716000E+03  7.923740E-14
  6.718000E+03  7.962156E-14
  6.720000E+03  7.933516E-14
  6.722000E+03  7.911109E-14
  6.724000E+03  7.805674E-14
  6.726000E+03  7.827150E-14
  6.728000E+03  7.903185E-14
  6.730000E+03  7.904907E-14
  6.732000E+03  7.960637E-14
  6.734000E+03  7.763722E-14
  6.736000E+03  7.809475E-14
  6.738000E+03  7.749805E-14
  6.740000E+03  7.796861E-14
  6.742000E+03  7.877642E-14
  6.744000E+03  7.813104E-14
  6.746000E+03  7.904349E-14
  6.748000E+03  7.890359E-14
  6.750000E+03  7.760192E-14
  6.752000E+03  7.751481E-14
  6.754000E+03  7.750197E-14
  6.756000E+03  7.738462E-14
  6.758000E+03  7.702803E-14
  6.760000E+03  7.745469E-14
  6.762000E+03  7.754952E-14
  6.764000E+03  7.760544E-14
  6.766000E+03  7.728761E-14
  6.768000E+03  7.741711E-14
  6.770000E+03  7.764546E-14
  6.772000E+03  7.846970E-14
  6.774000E+03  7.696377E-14
  6.776000E+03  7.703839E-14
  6.778000E+03  7.607253E-14
  6.780000E+03  7.660538E-14
  6.782000E+03  7.658079E-14
  6.784000E+03  7.648191E-14
  6.786000E+03  7.655893E-14
  6.788000E+03  7.689219E-14
  6.790000E+03  7.671520E-14
  6.792000E+03  7.681744E-14
  6.794000E+03  7.638533E-14
  6.796000E+03  7.690320E-14
  6.798000E+03  7.596669E-14
  6.800000E+03  7.573440E-14
  6.802000E+03  7.633510E-14
  6.804000E+03  7.568350E-14
  6.806000E+03  7.577414E-14
  6.808000E+03  7.615523E-14
  6.810000E+03  7.595658E-14
  6.812000E+03  7.621932E-14
  6.814000E+03  7.625026E-14
  6.816000E+03  7.518487E-14
  6.818000E+03  7.639509E-14
  6.820000E+03  7.592609E-14
  6.822000E+03  7.527722E-14
  6.824000E+03  7.543546E-14
  6.826000E+03  7.535772E-14
  6.828000E+03  7.520663E-14
  6.830000E+03  7.552243E-14
  6.832000E+03  7.464502E-14
  6.834000E+03  7.529060E-14
  6.836000E+03  7.542131E-14
  6.838000E+03  7.501939E-14
  6.840000E+03  7.475725E-14
  6.842000E+03  7.469046E-14
  6.844000E+03  7.487193E-14
  6.846000E+03  7.411797E-14
  6.848000E+03  7.434675E-14
  6.850000E+03  7.405582E-14
  6.852000E+03  7.414052E-14
  6.854000E+03  7.430854E-14
  6.856000E+03  7.445941E-14
  6.858000E+03  7.505046E-14
  6.860000E+03  7.483956E-14
  6.862000E+03  7.401641E-14
  6.864000E+03  7.025159E-14
  6.866000E+03  4.485164E-14
  6.868000E+03  4.034071E-14
  6.870000E+03  4.498586E-14
  6.872000E+03  4.912552E-14
  6.874000E+03  5.321561E-14
  6.876000E+03  5.747625E-14
  6.878000E+03  6.274325E-14
  6.880000E+03  7.108438E-14
  6.882000E+03  6.552800E-14
  6.884000E+03  5.954627E-14
  6.886000E+03  6.106317E-14
  6.888000E+03  5.820998E-14
  6.890000E+03  6.248146E-14
  6.892000E+03  6.030068E-14
  6.894000E+03  5.960179E-14
  6.896000E+03  6.266473E-14
  6.898000E+03  6.146495E-14
  6.900000E+03  6.375907E-14
  6.902000E+03  6.232720E-14
  6.904000E+03  6.449701E-14
  6.906000E+03  6.530350E-14
  6.908000E+03  6.305560E-14
  6.910000E+03  6.884633E-14
  6.912000E+03  6.238673E-14
  6.914000E+03  6.968563E-14
  6.916000E+03  6.616576E-14
  6.918000E+03  6.693020E-14
  6.920000E+03  6.763718E-14
  6.922000E+03  6.208299E-14
  6.924000E+03  6.808213E-14
  6.926000E+03  6.649722E-14
  6.928000E+03  6.126396E-14
  6.930000E+03  6.505589E-14
  6.932000E+03  6.360351E-14
  6.934000E+03  6.616613E-14
  6.936000E+03  6.370222E-14
  6.938000E+03  5.991376E-14
  6.940000E+03  5.972382E-14
  6.942000E+03  6.373506E-14
  6.944000E+03  6.770158E-14
  6.946000E+03  6.176826E-14
  6.948000E+03  6.428531E-14
  6.950000E+03  6.592956E-14
  6.952000E+03  6.521122E-14
  6.954000E+03  6.143981E-14
  6.956000E+03  6.358560E-14
  6.958000E+03  6.273167E-14
  6.960000E+03  6.407856E-14
  6.962000E+03  6.759911E-14
  6.964000E+03  6.804577E-14
  6.966000E+03  6.813618E-14
  6.968000E+03  6.749066E-14
  6.970000E+03  6.666243E-14
  6.972000E+03  6.706305E-14
  6.974000E+03  6.737943E-14
  6.976000E+03  6.626956E-14
  6.978000E+03  6.660516E-14
  6.980000E+03  6.652447E-14
  6.982000E+03  6.644291E-14
  6.984000E+03  6.378981E-14
  6.986000E+03  6.152175E-14
  6.988000E+03  6.182256E-14
  6.990000E+03  6.363445E-14
  6.992000E+03  6.159475E-14
  6.994000E+03  6.639610E-14
  6.996000E+03  6.303079E-14
  6.998000E+03  6.273108E-14
  7.000000E+03  6.597351E-14
  7.002000E+03  6.243013E-14
  7.004000E+03  5.979359E-14
  7.006000E+03  6.475125E-14
  7.008000E+03  6.341233E-14
  7.010000E+03  6.276892E-14
  7.012000E+03  6.514424E-14
  7.014000E+03  6.031985E-14
  7.016000E+03  6.245947E-14
  7.018000E+03  6.434751E-14
  7.020000E+03  6.420273E-14
  7.022000E+03  6.260925E-14
  7.024000E+03  6.272323E-14
  7.026000E+03  5.800191E-14
  7.028000E+03  6.491258E-14
  7.030000E+03  6.612918E-14
  7.032000E+03  6.673978E-14
  7.034000E+03  6.578738E-14
  7.036000E+03  6.164533E-14
  7.038000E+03  6.205327E-14
  7.040000E+03  6.496619E-14
  7.042000E+03  6.461980E-14
  7.044000E+03  6.545348E-14
  7.046000E+03  6.372552E-14
  7.048000E+03  6.344472E-14
  7.050000E+03  6.197852E-14
  7.052000E+03  6.439175E-14
  7.054000E+03  6.451145E-14
  7.056000E+03  6.345594E-14
  7.058000E+03  6.501176E-14
  7.060000E+03  6.394423E-14
  7.062000E+03  6.402485E-14
  7.064000E+03  6.115598E-14
  7.066000E+03  6.313092E-14
  7.068000E+03  6.545285E-14
  7.070000E+03  6.443633E-14
  7.072000E+03  6.453211E-14
  7.074000E+03  6.425541E-14
  7.076000E+03  6.393120E-14
  7.078000E+03  6.355719E-14
  7.080000E+03  6.528464E-14
  7.082000E+03  6.535704E-14
  7.084000E+03  6.546027E-14
  7.086000E+03  6.402401E-14
  7.088000E+03  6.495775E-14
  7.090000E+03  6.379563E-14
  7.092000E+03  6.502682E-14
  7.094000E+03  6.479067E-14
  7.096000E+03  6.408074E-14
  7.098000E+03  6.507395E-14
  7.100000E+03  6.407934E-14
  7.102000E+03  6.464567E-14
  7.104000E+03  6.393451E-14
  7.106000E+03  6.466690E-14
  7.108000E+03  6.443525E-14
  7.110000E+03  6.432576E-14
  7.112000E+03  6.452234E-14
  7.114000E+03  6.431258E-14
  7.116000E+03  6.424803E-14
  7.118000E+03  6.395064E-14
  7.120000E+03  6.479406E-14
  7.122000E+03  6.372674E-14
  7.124000E+03  6.471554E-14
  7.126000E+03  6.396845E-14
  7.128000E+03  6.294752E-14
  7.130000E+03  6.460108E-14
  7.132000E+03  6.399072E-14
  7.134000E+03  6.332978E-14
  7.136000E+03  6.341375E-14
  7.138000E+03  6.395865E-14
  7.140000E+03  6.363499E-14
  7.142000E+03  6.456818E-14
  7.144000E+03  6.325675E-14
  7.146000E+03  6.180702E-14
  7.148000E+03  6.184476E-14
  7.150000E+03  6.134184E-14
  7.152000E+03  6.269686E-14
  7.154000E+03  6.292449E-14
  7.156000E+03  6.098717E-14
  7.158000E+03  6.197763E-14
  7.160000E+03  6.129652E-14
  7.162000E+03  5.845434E-14
  7.164000E+03  5.578189E-14
  7.166000E+03  4.994362E-14
  7.168000E+03  5.021264E-14
  7.170000E+03  4.919585E-14
  7.172000E+03  4.286989E-14
  7.174000E+03  4.944030E-14
  7.176000E+03  4.430527E-14
  7.178000E+03  5.503422E-14
  7.180000E+03  4.903389E-14
  7.182000E+03  4.918223E-14
  7.184000E+03  3.833688E-14
  7.186000E+03  4.446801E-14
  7.188000E+03  5.521225E-14
  7.190000E+03  4.200303E-14
  7.192000E+03  4.306327E-14
  7.194000E+03  5.019793E-14
  7.196000E+03  4.684216E-14
  7.198000E+03  4.432237E-14
  7.200000E+03  4.349080E-14
  7.202000E+03  4.742841E-14
  7.204000E+03  4.850104E-14
  7.206000E+03  5.516698E-14
  7.208000E+03  5.488368E-14
  7.210000E+03  5.838601E-14
  7.212000E+03  6.077066E-14
  7.214000E+03  5.685768E-14
  7.216000E+03  5.652179E-14
  7.218000E+03  6.104888E-14
  7.220000E+03  6.051005E-14
  7.222000E+03  5.433237E-14
  7.224000E+03  5.926245E-14
  7.226000E+03  5.401662E-14
  7.228000E+03  5.912990E-14
  7.230000E+03  5.008036E-14
  7.232000E+03  4.215384E-14
  7.234000E+03  4.549827E-14
  7.236000E+03  5.752832E-14
  7.238000E+03  4.648354E-14
  7.240000E+03  4.975752E-14
  7.242000E+03  4.740094E-14
  7.244000E+03  4.959522E-14
  7.246000E+03  5.253455E-14
  7.248000E+03  5.263035E-14
  7.250000E+03  4.487890E-14
  7.252000E+03  4.254224E-14
  7.254000E+03  5.663560E-14
  7.256000E+03  4.865357E-14
  7.258000E+03  5.287320E-14
  7.260000E+03  5.156264E-14
  7.262000E+03  4.829038E-14
  7.264000E+03  4.600648E-14
  7.266000E+03  5.829247E-14
  7.268000E+03  5.185754E-14
  7.270000E+03  5.253550E-14
  7.272000E+03  4.904403E-14
  7.274000E+03  4.253689E-14
  7.276000E+03  3.979243E-14
  7.278000E+03  5.362798E-14
  7.280000E+03  5.456107E-14
  7.282000E+03  5.815974E-14
  7.284000E+03  5.707827E-14
  7.286000E+03  4.786842E-14
  7.288000E+03  4.643863E-14
  7.290000E+03  4.547437E-14
  7.292000E+03  4.914400E-14
  7.294000E+03  5.185115E-14
  7.296000E+03  5.711997E-14
  7.298000E+03  5.143370E-14
  7.300000E+03  5.011247E-14
  7.302000E+03  4.378398E-14
  7.304000E+03  5.416269E-14
  7.306000E+03  5.499604E-14
  7.308000E+03  4.727805E-14
  7.310000E+03  5.167496E-14
  7.312000E+03  5.290395E-14
  7.314000E+03  5.207674E-14
  7.316000E+03  4.681762E-14
  7.318000E+03  5.394636E-14
  7.320000E+03  5.736982E-14
  7.322000E+03  5.615567E-14
  7.324000E+03  5.634387E-14
  7.326000E+03  5.478997E-14
  7.328000E+03  5.712735E-14
  7.330000E+03  5.602346E-14
  7.332000E+03  5.211390E-14
  7.334000E+03  5.533864E-14
  7.336000E+03  5.881329E-14
  7.338000E+03  5.828542E-14
  7.340000E+03  5.789991E-14
  7.342000E+03  5.438274E-14
  7.344000E+03  5.642379E-14
  7.346000E+03  5.510959E-14
  7.348000E+03  5.303762E-14
  7.350000E+03  5.761660E-14
  7.352000E+03  5.574680E-14
  7.354000E+03  5.618350E-14
  7.356000E+03  5.577813E-14
  7.358000E+03  5.482456E-14
  7.360000E+03  5.385124E-14
  7.362000E+03  5.519392E-14
  7.364000E+03  5.497907E-14
  7.366000E+03  5.462768E-14
  7.368000E+03  5.283591E-14
  7.370000E+03  5.621549E-14
  7.372000E+03  5.713634E-14
  7.374000E+03  5.686658E-14
  7.376000E+03  5.570471E-14
  7.378000E+03  5.627240E-14
  7.380000E+03  5.432071E-14
  7.382000E+03  5.399109E-14
  7.384000E+03  5.686956E-14
  7.386000E+03  5.541084E-14
  7.388000E+03  5.408250E-14
  7.390000E+03  5.478551E-14
  7.392000E+03  5.581579E-14
  7.394000E+03  5.478620E-14
  7.396000E+03  5.530168E-14
  7.398000E+03  5.655400E-14
  7.400000E+03  5.678084E-14
  7.402000E+03  5.535153E-14
  7.404000E+03  5.614763E-14
  7.406000E+03  5.543338E-14
  7.408000E+03  5.480990E-14
  7.410000E+03  5.495379E-14
  7.412000E+03  5.607820E-14
  7.414000E+03  5.527166E-14
  7.416000E+03  5.609982E-14
  7.418000E+03  5.492953E-14
  7.420000E+03  5.477990E-14
  7.422000E+03  5.495368E-14
  7.424000E+03  5.511401E-14
  7.426000E+03  5.519192E-14
  7.428000E+03  5.542782E-14
  7.430000E+03  5.509147E-14
  7.432000E+03  5.448540E-14
  7.434000E+03  5.488663E-14
  7.436000E+03  5.501575E-14
  7.438000E+03  5.432973E-14
  7.440000E+03  5.464901E-14
  7.442000E+03  5.452028E-14
  7.444000E+03  5.451441E-14
  7.446000E+03  5.468453E-14
  7.448000E+03  5.490193E-14
  7.450000E+03  5.438953E-14
  7.452000E+03  5.432630E-14
  7.454000E+03  5.386508E-14
  7.456000E+03  5.481811E-14
  7.458000E+03  5.431286E-14
  7.460000E+03  5.412353E-14
  7.462000E+03  5.354963E-14
  7.464000E+03  5.412618E-14
  7.466000E+03  5.387685E-14
  7.468000E+03  5.389800E-14
  7.470000E+03  5.371563E-14
  7.472000E+03  5.377614E-14
  7.474000E+03  5.326740E-14
  7.476000E+03  5.354261E-14
  7.478000E+03  5.395387E-14
  7.480000E+03  5.378349E-14
  7.482000E+03  5.330191E-14
  7.484000E+03  5.283731E-14
  7.486000E+03  5.299855E-14
  7.488000E+03  5.339618E-14
  7.490000E+03  5.362547E-14
  7.492000E+03  5.329031E-14
  7.494000E+03  5.344150E-14
  7.496000E+03  5.327793E-14
  7.498000E+03  5.441165E-14
  7.500000E+03  5.402020E-14
  7.502000E+03  5.322865E-14
  7.504000E+03  5.310835E-14
  7.506000E+03  5.395761E-14
  7.508000E+03  5.344887E-14
  7.510000E+03  5.307302E-14
  7.512000E+03  5.289385E-14
  7.514000E+03  5.381052E-14
  7.516000E+03  5.409084E-14
  7.518000E+03  5.393407E-14
  7.520000E+03  5.319339E-14
  7.522000E+03  5.551306E-14
  7.524000E+03  5.392337E-14
  7.526000E+03  5.435749E-14
  7.528000E+03  5.360751E-14
  7.530000E+03  5.106029E-14
  7.532000E+03  5.407586E-14
  7.534000E+03  5.429631E-14
  7.536000E+03  5.441190E-14
  7.538000E+03  5.308410E-14
  7.540000E+03  5.356469E-14
  7.542000E+03  5.373407E-14
  7.544000E+03  5.421190E-14
  7.546000E+03  5.422265E-14
  7.548000E+03  5.307211E-14
  7.550000E+03  5.231671E-14
  7.552000E+03  5.388497E-14
  7.554000E+03  5.342959E-14
  7.556000E+03  5.363002E-14
  7.558000E+03  5.474536E-14
  7.560000E+03  5.330381E-14
  7.562000E+03  5.177708E-14
  7.564000E+03  5.403958E-14
  7.566000E+03  5.399560E-14
  7.568000E+03  5.338929E-14
  7.570000E+03  5.258927E-14
  7.572000E+03  5.306455E-14
  7.574000E+03  5.408576E-14
  7.576000E+03  5.344414E-14
  7.578000E+03  5.169034E-14
  7.580000E+03  5.294785E-14
  7.582000E+03  5.320736E-14
  7.584000E+03  5.153735E-14
  7.586000E+03  5.112162E-14
  7.588000E+03  5.052660E-14
  7.590000E+03  5.135064E-14
  7.592000E+03  4.373887E-14
  7.594000E+03  2.297081E-14
  7.596000E+03  1.637003E-14
  7.598000E+03  1.407462E-14
  7.600000E+03  1.015886E-14
  7.602000E+03  7.270836E-15
  7.604000E+03  6.878869E-15
  7.606000E+03  7.718053E-15
  7.608000E+03  9.322925E-15
  7.610000E+03  1.185601E-14
  7.612000E+03  1.726589E-14
  7.614000E+03  2.262975E-14
  7.616000E+03  3.626287E-14
  7.618000E+03  4.563438E-14
  7.620000E+03  3.175461E-14
  7.622000E+03  2.392366E-14
  7.624000E+03  2.313903E-14
  7.626000E+03  2.077505E-14
  7.628000E+03  2.171280E-14
  7.630000E+03  1.915602E-14
  7.632000E+03  2.433844E-14
  7.634000E+03  2.117486E-14
  7.636000E+03  2.396632E-14
  7.638000E+03  2.794688E-14
  7.640000E+03  2.110548E-14
  7.642000E+03  3.548953E-14
  7.644000E+03  2.170169E-14
  7.646000E+03  3.700999E-14
  7.648000E+03  2.883753E-14
  7.650000E+03  3.328950E-14
  7.652000E+03  4.037518E-14
  7.654000E+03  2.971341E-14
  7.656000E+03  4.353236E-14
  7.658000E+03  3.812887E-14
  7.660000E+03  3.756484E-14
  7.662000E+03  4.692625E-14
  7.664000E+03  3.849023E-14
  7.666000E+03  4.289390E-14
  7.668000E+03  4.804401E-14
  7.670000E+03  4.058608E-14
  7.672000E+03  4.610771E-14
  7.674000E+03  4.910110E-14
  7.676000E+03  4.472273E-14
  7.678000E+03  4.795881E-14
  7.680000E+03  4.896003E-14
  7.682000E+03  4.594540E-14
  7.684000E+03  4.847687E-14
  7.686000E+03  5.004366E-14
  7.688000E+03  4.801804E-14
  7.690000E+03  4.806350E-14
  7.692000E+03  4.895122E-14
  7.694000E+03  4.992133E-14
  7.696000E+03  4.803669E-14
  7.698000E+03  4.906973E-14
  7.700000E+03  4.786763E-14
  7.702000E+03  4.909740E-14
  7.704000E+03  4.807337E-14
  7.706000E+03  4.928937E-14
  7.708000E+03  5.043150E-14
  7.710000E+03  4.856709E-14
  7.712000E+03  5.054197E-14
  7.714000E+03  4.864421E-14
  7.716000E+03  4.915504E-14
  7.718000E+03  4.926367E-14
  7.720000E+03  4.952996E-14
  7.722000E+03  4.929721E-14
  7.724000E+03  4.915850E-14
  7.726000E+03  4.906021E-14
  7.728000E+03  4.829804E-14
  7.730000E+03  4.954069E-14
  7.732000E+03  5.058922E-14
  7.734000E+03  4.888119E-14
  7.736000E+03  4.793737E-14
  7.738000E+03  4.829741E-14
  7.740000E+03  4.898376E-14
  7.742000E+03  4.813388E-14
  7.744000E+03  4.779347E-14
  7.746000E+03  4.925615E-14
  7.748000E+03  4.866025E-14
  7.750000E+03  4.976684E-14
  7.752000E+03  4.745339E-14
  7.754000E+03  4.742700E-14
  7.756000E+03  4.901044E-14
  7.758000E+03  4.896934E-14
  7.760000E+03  4.851247E-14
  7.762000E+03  4.891061E-14
  7.764000E+03  4.785163E-14
  7.766000E+03  4.908704E-14
  7.768000E+03  4.838769E-14
  7.770000E+03  4.798232E-14
  7.772000E+03  4.726233E-14
  7.774000E+03  4.699823E-14
  7.776000E+03  4.756210E-14
  7.778000E+03  4.752076E-14
  7.780000E+03  4.631427E-14
  7.782000E+03  4.782443E-14
  7.784000E+03  4.767658E-14
  7.786000E+03  4.586806E-14
  7.788000E+03  4.759615E-14
  7.790000E+03  4.801868E-14
  7.792000E+03  4.898093E-14
  7.794000E+03  4.771433E-14
  7.796000E+03  4.715925E-14
  7.798000E+03  4.793675E-14
  7.800000E+03  4.834110E-14
  7.802000E+03  4.862236E-14
  7.804000E+03  4.706210E-14
  7.806000E+03  4.759190E-14
  7.808000E+03  4.638982E-14
  7.810000E+03  4.702464E-14
  7.812000E+03  4.661070E-14
  7.814000E+03  4.664288E-14
  7.816000E+03  4.697333E-14
  7.818000E+03  4.604559E-14
  7.820000E+03  4.715146E-14
  7.822000E+03  4.641809E-14
  7.824000E+03  4.816948E-14
  7.826000E+03  4.558775E-14
  7.828000E+03  4.664479E-14
  7.830000E+03  4.608164E-14
  7.832000E+03  4.723769E-14
  7.834000E+03  4.761760E-14
  7.836000E+03  4.795465E-14
  7.838000E+03  4.508952E-14
  7.840000E+03  4.737414E-14
  7.842000E+03  4.513144E-14
  7.844000E+03  4.489346E-14
  7.846000E+03  4.429808E-14
  7.848000E+03  4.611058E-14
  7.850000E+03  4.581761E-14
  7.852000E+03  4.511550E-14
  7.854000E+03  4.578796E-14
  7.856000E+03  4.574398E-14
  7.858000E+03  4.830405E-14
  7.860000E+03  4.498597E-14
  7.862000E+03  4.700696E-14
  7.864000E+03  4.577739E-14
  7.866000E+03  4.630958E-14
  7.868000E+03  4.637814E-14
  7.870000E+03  4.523170E-14
  7.872000E+03  4.601620E-14
  7.874000E+03  4.694853E-14
  7.876000E+03  4.516047E-14
  7.878000E+03  4.648748E-14
  7.880000E+03  4.548066E-14
  7.882000E+03  4.634727E-14
  7.884000E+03  4.527759E-14
  7.886000E+03  4.398500E-14
  7.888000E+03  4.543081E-14
  7.890000E+03  4.510048E-14
  7.892000E+03  4.454872E-14
  7.894000E+03  4.358502E-14
  7.896000E+03  4.422386E-14
  7.898000E+03  4.653236E-14
  7.900000E+03  4.270462E-14
  7.902000E+03  4.337574E-14
  7.904000E+03  4.534334E-14
  7.906000E+03  4.596336E-14
  7.908000E+03  4.276268E-14
  7.910000E+03  4.337729E-14
  7.912000E+03  4.471817E-14
  7.914000E+03  4.419868E-14
  7.916000E+03  4.518720E-14
  7.918000E+03  4.486328E-14
  7.920000E+03  4.307336E-14
  7.922000E+03  4.511910E-14
  7.924000E+03  4.486668E-14
  7.926000E+03  4.553881E-14
  7.928000E+03  4.159679E-14
  7.930000E+03  4.594456E-14
  7.932000E+03  4.544924E-14
  7.934000E+03  4.475400E-14
  7.936000E+03  4.665833E-14
  7.938000E+03  4.453143E-14
  7.940000E+03  4.617311E-14
  7.942000E+03  4.363379E-14
  7.944000E+03  4.477211E-14
  7.946000E+03  4.459265E-14
  7.948000E+03  4.493342E-14
  7.950000E+03  4.283091E-14
  7.952000E+03  4.517869E-14
  7.954000E+03  4.369783E-14
  7.956000E+03  4.382925E-14
  7.958000E+03  4.145538E-14
  7.960000E+03  4.201359E-14
  7.962000E+03  4.094575E-14
  7.964000E+03  4.375212E-14
  7.966000E+03  4.453970E-14
  7.968000E+03  4.214837E-14
  7.970000E+03  4.343157E-14
  7.972000E+03  4.333172E-14
  7.974000E+03  4.324921E-14
  7.976000E+03  4.463206E-14
  7.978000E+03  4.404910E-14
  7.980000E+03  4.349730E-14
  7.982000E+03  4.413281E-14
  7.984000E+03  4.245806E-14
  7.986000E+03  4.411366E-14
  7.988000E+03  4.278713E-14
  7.990000E+03  4.367494E-14
  7.992000E+03  4.331443E-14
  7.994000E+03  4.388407E-14
  7.996000E+03  4.477073E-14
  7.998000E+03  4.229608E-14
  8.000000E+03  4.157975E-14
  8.002000E+03  4.298985E-14
  8.004000E+03  4.371092E-14
  8.006000E+03  4.099945E-14
  8.008000E+03  4.267578E-14
  8.010000E+03  4.490237E-14
  8.012000E+03  4.149833E-14
  8.014000E+03  4.117932E-14
  8.016000E+03  4.283796E-14
  8.018000E+03  4.437486E-14
  8.020000E+03  4.221704E-14
  8.022000E+03  4.077960E-14
  8.024000E+03  4.226303E-14
  8.026000E+03  4.173490E-14
  8.028000E+03  4.202863E-14
  8.030000E+03  4.187396E-14
  8.032000E+03  4.026727E-14
  8.034000E+03  4.068275E-14
  8.036000E+03  4.098124E-14
  8.038000E+03  4.263524E-14
  8.040000E+03  4.263693E-14
  8.042000E+03  4.131670E-14
  8.044000E+03  4.162019E-14
  8.046000E+03  4.259044E-14
  8.048000E+03  4.375677E-14
  8.050000E+03  4.247598E-14
  8.052000E+03  4.319884E-14
  8.054000E+03  4.270322E-14
  8.056000E+03  4.263999E-14
  8.058000E+03  4.190270E-14
  8.060000E+03  4.259713E-14
  8.062000E+03  4.141134E-14
  8.064000E+03  4.237295E-14
  8.066000E+03  4.282853E-14
  8.068000E+03  4.183756E-14
  8.070000E+03  4.180370E-14
  8.072000E+03  4.279579E-14
  8.074000E+03  4.248399E-14
  8.076000E+03  4.386890E-14
  8.078000E+03  4.267655E-14
  8.080000E+03  4.100458E-14
  8.082000E+03  4.128563E-14
  8.084000E+03  3.953024E-14
  8.086000E+03  4.161050E-14
  8.088000E+03  4.112787E-14
  8.090000E+03  4.149742E-14
  8.092000E+03  3.993016E-14
  8.094000E+03  4.151990E-14
  8.096000E+03  3.891644E-14
  8.098000E+03  4.022587E-14
  8.100000E+03  4.110703E-14
  8.102000E+03  4.111909E-14
  8.104000E+03  4.041944E-14
  8.106000E+03  4.048522E-14
  8.108000E+03  3.937115E-14
  8.110000E+03  4.011544E-14
  8.112000E+03  3.729288E-14
  8.114000E+03  4.047310E-14
  8.116000E+03  4.182465E-14
  8.118000E+03  3.847171E-14
  8.120000E+03  3.990068E-14
  8.122000E+03  3.844619E-14
  8.124000E+03  3.770607E-14
  8.126000E+03  3.867222E-14
  8.128000E+03  3.953797E-14
  8.130000E+03  3.479940E-14
  8.132000E+03  3.348270E-14
  8.134000E+03  3.148897E-14
  8.136000E+03  3.587997E-14
  8.138000E+03  3.773231E-14
  8.140000E+03  3.655902E-14
  8.142000E+03  3.582473E-14
  8.144000E+03  3.619633E-14
  8.146000E+03  3.189913E-14
  8.148000E+03  2.831995E-14
  8.150000E+03  3.561869E-14
  8.152000E+03  3.120105E-14
  8.154000E+03  3.082028E-14
  8.156000E+03  3.512412E-14
  8.158000E+03  3.555396E-14
  8.160000E+03  2.885941E-14
  8.162000E+03  2.574144E-14
  8.164000E+03  2.832338E-14
  8.166000E+03  3.474141E-14
  8.168000E+03  2.709393E-14
  8.170000E+03  3.242642E-14
  8.172000E+03  3.808731E-14
  8.174000E+03  3.552102E-14
  8.176000E+03  2.587478E-14
  8.178000E+03  2.472621E-14
  8.180000E+03  3.398523E-14
  8.182000E+03  3.430404E-14
  8.184000E+03  3.635195E-14
  8.186000E+03  3.284772E-14
  8.188000E+03  3.022280E-14
  8.190000E+03  3.446751E-14
  8.192000E+03  3.146934E-14
  8.194000E+03  3.654773E-14
  8.196000E+03  3.380645E-14
  8.198000E+03  3.032035E-14
  8.200000E+03  3.337460E-14
  8.202000E+03  3.810709E-14
  8.204000E+03  3.922090E-14
  8.206000E+03  4.085193E-14
  8.208000E+03  3.871968E-14
  8.210000E+03  3.519066E-14
  8.212000E+03  3.687521E-14
  8.214000E+03  3.810339E-14
  8.216000E+03  3.780512E-14
  8.218000E+03  3.484968E-14
  8.220000E+03  3.446900E-14
  8.222000E+03  3.303435E-14
  8.224000E+03  3.024748E-14
  8.226000E+03  2.124823E-14
  8.228000E+03  1.880259E-14
  8.230000E+03  2.177651E-14
  8.232000E+03  2.874490E-14
  8.234000E+03  3.299347E-14
  8.236000E+03  3.566591E-14
  8.238000E+03  3.466720E-14
  8.240000E+03  3.754400E-14
  8.242000E+03  2.905451E-14
  8.244000E+03  3.504845E-14
  8.246000E+03  3.856102E-14
  8.248000E+03  3.916211E-14
  8.250000E+03  3.755324E-14
  8.252000E+03  3.591437E-14
  8.254000E+03  3.476066E-14
  8.256000E+03  3.167935E-14
  8.258000E+03  3.402642E-14
  8.260000E+03  3.550581E-14
  8.262000E+03  3.449703E-14
  8.264000E+03  3.736537E-14
  8.266000E+03  3.807900E-14
  8.268000E+03  3.782631E-14
  8.270000E+03  3.763254E-14
  8.272000E+03  3.196435E-14
  8.274000E+03  3.018356E-14
  8.276000E+03  3.249544E-14
  8.278000E+03  3.285582E-14
  8.280000E+03  3.318723E-14
  8.282000E+03  3.406214E-14
  8.284000E+03  3.799599E-14
  8.286000E+03  3.247421E-14
  8.288000E+03  2.919310E-14
  8.290000E+03  3.593721E-14
  8.292000E+03  3.497909E-14
  8.294000E+03  3.077669E-14
  8.296000E+03  3.758012E-14
  8.298000E+03  3.531310E-14
  8.300000E+03  3.326156E-14
  8.302000E+03  3.384246E-14
  8.304000E+03  2.904764E-14
  8.306000E+03  3.515708E-14
  8.308000E+03  3.720903E-14
  8.310000E+03  3.563569E-14
  8.312000E+03  3.526878E-14
  8.314000E+03  3.607010E-14
  8.316000E+03  3.185422E-14
  8.318000E+03  3.361099E-14
  8.320000E+03  2.943395E-14
  8.322000E+03  3.481000E-14
  8.324000E+03  3.692233E-14
  8.326000E+03  3.711054E-14
  8.328000E+03  3.424907E-14
  8.330000E+03  3.550353E-14
  8.332000E+03  3.519750E-14
  8.334000E+03  3.530659E-14
  8.336000E+03  3.715089E-14
  8.338000E+03  3.405312E-14
  8.340000E+03  3.667514E-14
  8.342000E+03  3.757501E-14
  8.344000E+03  3.850564E-14
  8.346000E+03  3.784226E-14
  8.348000E+03  3.621041E-14
  8.350000E+03  3.763874E-14
  8.352000E+03  3.435870E-14
  8.354000E+03  3.534630E-14
  8.356000E+03  3.528449E-14
  8.358000E+03  3.718251E-14
  8.360000E+03  3.759674E-14
  8.362000E+03  3.672102E-14
  8.364000E+03  3.667007E-14
  8.366000E+03  3.693577E-14
  8.368000E+03  3.691866E-14
  8.370000E+03  3.826385E-14
  8.372000E+03  3.703955E-14
  8.374000E+03  3.567565E-14
  8.376000E+03  3.580308E-14
  8.378000E+03  3.810661E-14
  8.380000E+03  3.807692E-14
  8.382000E+03  3.750024E-14
  8.384000E+03  3.444280E-14
  8.386000E+03  3.637843E-14
  8.388000E+03  3.719400E-14
  8.390000E+03  3.763809E-14
  8.392000E+03  3.739271E-14
  8.394000E+03  3.595861E-14
  8.396000E+03  3.695360E-14
  8.398000E+03  3.624224E-14
  8.400000E+03  3.592614E-14
  8.402000E+03  3.799575E-14
  8.404000E+03  3.654907E-14
  8.406000E+03  3.698124E-14
  8.408000E+03  3.497907E-14
  8.410000E+03  3.723943E-14
  8.412000E+03  3.812906E-14
  8.414000E+03  3.622642E-14
  8.416000E+03  3.357896E-14
  8.418000E+03  3.586323E-14
  8.420000E+03  3.784832E-14
  8.422000E+03  3.675299E-14
  8.424000E+03  3.523838E-14
  8.426000E+03  3.634846E-14
  8.428000E+03  3.693121E-14
  8.430000E+03  3.707366E-14
  8.432000E+03  3.500934E-14
  8.434000E+03  3.811380E-14
  8.436000E+03  3.526192E-14
  8.438000E+03  3.869718E-14
  8.440000E+03  3.779130E-14
  8.442000E+03  3.791386E-14
  8.444000E+03  3.826447E-14
  8.446000E+03  3.651928E-14
  8.448000E+03  3.590364E-14
  8.450000E+03  3.795524E-14
  8.452000E+03  3.742267E-14
  8.454000E+03  3.440541E-14
  8.456000E+03  3.779171E-14
  8.458000E+03  3.609761E-14
  8.460000E+03  3.614338E-14
  8.462000E+03  3.567904E-14
  8.464000E+03  3.649636E-14
  8.466000E+03  3.508510E-14
  8.468000E+03  3.663329E-14
  8.470000E+03  3.736226E-14
  8.472000E+03  3.637851E-14
  8.474000E+03  3.544939E-14
  8.476000E+03  3.667927E-14
  8.478000E+03  3.644678E-14
  8.480000E+03  3.689991E-14
  8.482000E+03  3.642051E-14
  8.484000E+03  3.734782E-14
  8.486000E+03  3.719622E-14
  8.488000E+03  3.634346E-14
  8.490000E+03  3.522550E-14
  8.492000E+03  3.723659E-14
  8.494000E+03  3.668954E-14
  8.496000E+03  3.645891E-14
  8.498000E+03  3.680304E-14
  8.500000E+03  3.563121E-14
  8.502000E+03  3.440099E-14
  8.504000E+03  3.500818E-14
  8.506000E+03  3.540719E-14
  8.508000E+03  3.701303E-14
  8.510000E+03  3.441083E-14
  8.512000E+03  3.483176E-14
  8.514000E+03  3.456145E-14
  8.516000E+03  3.690907E-14
  8.518000E+03  3.414216E-14
  8.520000E+03  3.618875E-14
  8.522000E+03  3.462681E-14
  8.524000E+03  3.471469E-14
  8.526000E+03  3.456392E-14
  8.528000E+03  3.565454E-14
  8.530000E+03  3.521934E-14
  8.532000E+03  3.659849E-14
  8.534000E+03  3.571961E-14
  8.536000E+03  3.520964E-14
  8.538000E+03  3.643950E-14
  8.540000E+03  3.638105E-14
  8.542000E+03  3.526052E-14
  8.544000E+03  3.586018E-14
  8.546000E+03  3.647861E-14
  8.548000E+03  3.580862E-14
  8.550000E+03  3.571460E-14
  8.552000E+03  3.590601E-14
  8.554000E+03  3.588086E-14
  8.556000E+03  3.441806E-14
  8.558000E+03  3.563836E-14
  8.560000E+03  3.466474E-14
  8.562000E+03  3.558546E-14
  8.564000E+03  3.540257E-14
  8.566000E+03  3.505107E-14
  8.568000E+03  3.438101E-14
  8.570000E+03  3.450673E-14
  8.572000E+03  3.470010E-14
  8.574000E+03  3.489087E-14
  8.576000E+03  3.458678E-14
  8.578000E+03  3.489241E-14
  8.580000E+03  3.546609E-14
  8.582000E+03  3.512840E-14
  8.584000E+03  3.519946E-14
  8.586000E+03  3.506928E-14
  8.588000E+03  3.481850E-14
  8.590000E+03  3.456002E-14
  8.592000E+03  3.425208E-14
  8.594000E+03  3.471257E-14
  8.596000E+03  3.432916E-14
  8.598000E+03  3.435518E-14
  8.600000E+03  3.466757E-14
  8.602000E+03  3.434072E-14
  8.604000E+03  3.398449E-14
  8.606000E+03  3.473872E-14
  8.608000E+03  3.407741E-14
  8.610000E+03  3.402900E-14
  8.612000E+03  3.427346E-14
  8.614000E+03  3.429489E-14
  8.616000E+03  3.420968E-14
  8.618000E+03  3.423500E-14
  8.620000E+03  3.397762E-14
  8.622000E+03  3.398241E-14
  8.624000E+03  3.401715E-14
  8.626000E+03  3.504902E-14
  8.628000E+03  3.390416E-14
  8.630000E+03  3.380244E-14
  8.632000E+03  3.371991E-14
  8.634000E+03  3.410051E-14
  8.636000E+03  3.373389E-14
  8.638000E+03  3.361125E-14
  8.640000E+03  3.368835E-14
  8.642000E+03  3.344900E-14
  8.644000E+03  3.331287E-14
  8.646000E+03  3.313149E-14
  8.648000E+03  3.333452E-14
  8.650000E+03  3.305226E-14
  8.652000E+03  3.324461E-14
  8.654000E+03  3.259617E-14
  8.656000E+03  3.301732E-14
  8.658000E+03  3.310124E-14
  8.660000E+03  3.284209E-14
  8.662000E+03  3.290278E-14
  8.664000E+03  3.272370E-14
  8.666000E+03  3.263103E-14
  8.668000E+03  3.289490E-14
  8.670000E+03  3.288801E-14
  8.672000E+03  3.225608E-14
  8.674000E+03  3.249897E-14
  8.676000E+03  3.283911E-14
  8.678000E+03  3.271903E-14
  8.680000E+03  3.240363E-14
  8.682000E+03  3.234839E-14
  8.684000E+03  3.220858E-14
  8.686000E+03  3.226782E-14
  8.688000E+03  3.207070E-14
  8.690000E+03  3.289580E-14
  8.692000E+03  3.264288E-14
  8.694000E+03  3.258806E-14
  8.696000E+03  3.255928E-14
  8.698000E+03  3.202397E-14
  8.700000E+03  3.249772E-14
  8.702000E+03  3.221224E-14
  8.704000E+03  3.162093E-14
  8.706000E+03  3.290104E-14
  8.708000E+03  3.252916E-14
  8.710000E+03  3.269243E-14
  8.712000E+03  3.282243E-14
  8.714000E+03  2.966252E-14
  8.716000E+03  3.032305E-14
  8.718000E+03  3.216966E-14
  8.720000E+03  3.243838E-14
  8.722000E+03  3.265674E-14
  8.724000E+03  3.278679E-14
  8.726000E+03  3.186328E-14
  8.728000E+03  3.186383E-14
  8.730000E+03  3.199340E-14
  8.732000E+03  3.212595E-14
  8.734000E+03  3.178083E-14
  8.736000E+03  3.139691E-14
  8.738000E+03  3.220300E-14
  8.740000E+03  3.208640E-14
  8.742000E+03  3.230701E-14
  8.744000E+03  3.212803E-14
  8.746000E+03  3.207759E-14
  8.748000E+03  3.228990E-14
  8.750000E+03  3.153404E-14
  8.752000E+03  3.253714E-14
  8.754000E+03  3.187452E-14
  8.756000E+03  3.157697E-14
  8.758000E+03  3.200937E-14
  8.760000E+03  3.287301E-14
  8.762000E+03  3.212218E-14
  8.764000E+03  3.129438E-14
  8.766000E+03  3.183706E-14
  8.768000E+03  3.182093E-14
  8.770000E+03  3.135114E-14
  8.772000E+03  3.163527E-14
  8.774000E+03  3.130232E-14
  8.776000E+03  3.088113E-14
  8.778000E+03  3.179820E-14
  8.780000E+03  3.162849E-14
  8.782000E+03  3.137036E-14
  8.784000E+03  3.108803E-14
  8.786000E+03  3.139912E-14
  8.788000E+03  3.143153E-14
  8.790000E+03  3.153226E-14
  8.792000E+03  3.153670E-14
  8.794000E+03  3.135053E-14
  8.796000E+03  3.066821E-14
  8.798000E+03  3.151199E-14
  8.800000E+03  3.188290E-14
  8.802000E+03  3.087802E-14
  8.804000E+03  3.177386E-14
  8.806000E+03  3.096463E-14
  8.808000E+03  3.127060E-14
  8.810000E+03  3.129695E-14
  8.812000E+03  3.069937E-14
  8.814000E+03  3.090357E-14
  8.816000E+03  3.213862E-14
  8.818000E+03  3.151847E-14
  8.820000E+03  3.079564E-14
  8.822000E+03  3.081821E-14
  8.824000E+03  3.186118E-14
  8.826000E+03  3.166456E-14
  8.828000E+03  3.178614E-14
  8.830000E+03  3.146206E-14
  8.832000E+03  3.198173E-14
  8.834000E+03  3.142787E-14
  8.836000E+03  3.072673E-14
  8.838000E+03  3.184712E-14
  8.840000E+03  3.173800E-14
  8.842000E+03  3.117990E-14
  8.844000E+03  3.109198E-14
  8.846000E+03  3.117860E-14
  8.848000E+03  3.218590E-14
  8.850000E+03  3.104150E-14
  8.852000E+03  3.036066E-14
  8.854000E+03  2.992672E-14
  8.856000E+03  3.067188E-14
  8.858000E+03  3.103116E-14
  8.860000E+03  3.110984E-14
  8.862000E+03  3.058544E-14
  8.864000E+03  3.051632E-14
  8.866000E+03  3.036465E-14
  8.868000E+03  3.000826E-14
  8.870000E+03  3.009833E-14
  8.872000E+03  3.019607E-14
  8.874000E+03  3.081251E-14
  8.876000E+03  3.038856E-14
  8.878000E+03  2.996498E-14
  8.880000E+03  3.011723E-14
  8.882000E+03  3.004578E-14
  8.884000E+03  3.077276E-14
  8.886000E+03  2.971307E-14
  8.888000E+03  3.029214E-14
  8.890000E+03  2.978852E-14
  8.892000E+03  3.020130E-14
  8.894000E+03  2.995842E-14
  8.896000E+03  3.062203E-14
  8.898000E+03  3.043515E-14
  8.900000E+03  3.015948E-14
  8.902000E+03  3.017155E-14
  8.904000E+03  2.943377E-14
  8.906000E+03  2.991071E-14
  8.908000E+03  2.974686E-14
  8.910000E+03  2.970232E-14
  8.912000E+03  2.882397E-14
  8.914000E+03  2.959191E-14
  8.916000E+03  2.891321E-14
  8.918000E+03  2.850287E-14
  8.920000E+03  2.962648E-14
  8.922000E+03  2.966273E-14
  8.924000E+03  2.919695E-14
  8.926000E+03  2.866056E-14
  8.928000E+03  2.588571E-14
  8.930000E+03  2.723976E-14
  8.932000E+03  2.743114E-14
  8.934000E+03  2.790794E-14
  8.936000E+03  2.891120E-14
  8.938000E+03  2.859210E-14
  8.940000E+03  2.695299E-14
  8.942000E+03  2.838262E-14
  8.944000E+03  2.677641E-14
  8.946000E+03  2.536963E-14
  8.948000E+03  2.635468E-14
  8.950000E+03  2.490437E-14
  8.952000E+03  2.412481E-14
  8.954000E+03  2.239081E-14
  8.956000E+03  2.635017E-14
  8.958000E+03  2.728880E-14
  8.960000E+03  2.375319E-14
  8.962000E+03  1.856508E-14
  8.964000E+03  1.989025E-14
  8.966000E+03  2.407919E-14
  8.968000E+03  2.547148E-14
  8.970000E+03  1.906945E-14
  8.972000E+03  2.065538E-14
  8.974000E+03  2.186271E-14
  8.976000E+03  2.600253E-14
  8.978000E+03  2.379753E-14
  8.980000E+03  2.042919E-14
  8.982000E+03  2.765787E-14
  8.984000E+03  2.298961E-14
  8.986000E+03  1.314750E-14
  8.988000E+03  1.370285E-14
  8.990000E+03  1.229875E-14
  8.992000E+03  2.092603E-14
  8.994000E+03  2.704064E-14
  8.996000E+03  2.711581E-14
  8.998000E+03  2.013285E-14
  9.000000E+03  1.907306E-14
  9.002000E+03  1.905457E-14
  9.004000E+03  2.126334E-14
  9.006000E+03  1.754476E-14
  9.008000E+03  2.244538E-14
  9.010000E+03  2.165261E-14
  9.012000E+03  2.307224E-14
  9.014000E+03  2.156287E-14
  9.016000E+03  1.758560E-14
  9.018000E+03  2.411362E-14
  9.020000E+03  2.341313E-14
  9.022000E+03  1.939512E-14
  9.024000E+03  1.871179E-14
  9.026000E+03  2.239125E-14
  9.028000E+03  2.403387E-14
  9.030000E+03  2.248899E-14
  9.032000E+03  2.519150E-14
  9.034000E+03  2.708633E-14
  9.036000E+03  2.723005E-14
  9.038000E+03  2.605036E-14
  9.040000E+03  2.347166E-14
  9.042000E+03  2.279670E-14
  9.044000E+03  2.673300E-14
  9.046000E+03  2.548145E-14
  9.048000E+03  2.596344E-14
  9.050000E+03  2.445775E-14
  9.052000E+03  2.203670E-14
  9.054000E+03  2.616163E-14
  9.056000E+03  2.683751E-14
  9.058000E+03  2.534434E-14
  9.060000E+03  2.143449E-14
  9.062000E+03  1.997222E-14
  9.064000E+03  2.371460E-14
  9.066000E+03  2.543281E-14
  9.068000E+03  1.835065E-14
  9.070000E+03  1.811184E-14
  9.072000E+03  1.794712E-14
  9.074000E+03  2.369381E-14
  9.076000E+03  2.573963E-14
  9.078000E+03  1.658602E-14
  9.080000E+03  1.629075E-14
  9.082000E+03  2.420403E-14
  9.084000E+03  2.156622E-14
  9.086000E+03  1.768899E-14
  9.088000E+03  2.209437E-14
  9.090000E+03  2.157308E-14
  9.092000E+03  1.941099E-14
  9.094000E+03  2.097327E-14
  9.096000E+03  2.287931E-14
  9.098000E+03  1.695803E-14
  9.100000E+03  1.976598E-14
  9.102000E+03  2.508250E-14
  9.104000E+03  1.965131E-14
  9.106000E+03  1.445614E-14
  9.108000E+03  2.196135E-14
  9.110000E+03  2.651630E-14
  9.112000E+03  2.538904E-14
  9.114000E+03  2.345163E-14
  9.116000E+03  1.741548E-14
  9.118000E+03  1.650975E-14
  9.120000E+03  2.422635E-14
  9.122000E+03  2.475221E-14
  9.124000E+03  2.328571E-14
  9.126000E+03  2.097909E-14
  9.128000E+03  1.508421E-14
  9.130000E+03  1.598141E-14
  9.132000E+03  2.034427E-14
  9.134000E+03  1.405951E-14
  9.136000E+03  1.440637E-14
  9.138000E+03  2.422967E-14
  9.140000E+03  2.317989E-14
  9.142000E+03  2.172456E-14
  9.144000E+03  2.248465E-14
  9.146000E+03  2.398065E-14
  9.148000E+03  2.206820E-14
  9.150000E+03  1.647322E-14
  9.152000E+03  1.254022E-14
  9.154000E+03  1.420122E-14
  9.156000E+03  1.939612E-14
  9.158000E+03  2.151498E-14
  9.160000E+03  2.035065E-14
  9.162000E+03  2.254500E-14
  9.164000E+03  2.456789E-14
  9.166000E+03  2.108530E-14
  9.168000E+03  2.001490E-14
  9.170000E+03  2.164198E-14
  9.172000E+03  1.494038E-14
  9.174000E+03  1.354288E-14
  9.176000E+03  1.802029E-14
  9.178000E+03  2.243660E-14
  9.180000E+03  2.339289E-14
  9.182000E+03  2.001474E-14
  9.184000E+03  1.722361E-14
  9.186000E+03  2.349164E-14
  9.188000E+03  2.467573E-14
  9.190000E+03  2.329519E-14
  9.192000E+03  2.251561E-14
  9.194000E+03  1.798041E-14
  9.196000E+03  2.227476E-14
  9.198000E+03  2.518963E-14
  9.200000E+03  2.554888E-14
  9.202000E+03  2.584713E-14
  9.204000E+03  2.341433E-14
  9.206000E+03  2.170540E-14
  9.208000E+03  2.334624E-14
  9.210000E+03  2.433113E-14
  9.212000E+03  2.175423E-14
  9.214000E+03  2.004196E-14
  9.216000E+03  1.920353E-14
  9.218000E+03  2.457468E-14
  9.220000E+03  2.450540E-14
  9.222000E+03  2.375001E-14
  9.224000E+03  2.192195E-14
  9.226000E+03  2.472463E-14
  9.228000E+03  2.286399E-14
  9.230000E+03  2.394244E-14
  9.232000E+03  2.153927E-14
  9.234000E+03  2.208081E-14
  9.236000E+03  2.060326E-14
  9.238000E+03  2.046151E-14
  9.240000E+03  2.259971E-14
  9.242000E+03  2.165507E-14
  9.244000E+03  2.092733E-14
  9.246000E+03  2.331278E-14
  9.248000E+03  2.401890E-14
  9.250000E+03  2.189853E-14
  9.252000E+03  2.356355E-14
  9.254000E+03  2.510004E-14
  9.256000E+03  2.585774E-14
  9.258000E+03  2.232763E-14
  9.260000E+03  2.083501E-14
  9.262000E+03  2.474813E-14
  9.264000E+03  2.664227E-14
  9.266000E+03  2.594969E-14
  9.268000E+03  2.464501E-14
  9.270000E+03  2.423834E-14
  9.272000E+03  2.100297E-14
  9.274000E+03  2.168383E-14
  9.276000E+03  2.029913E-14
  9.278000E+03  1.492195E-14
  9.280000E+03  2.102867E-14
  9.282000E+03  2.082392E-14
  9.284000E+03  1.589784E-14
  9.286000E+03  1.756594E-14
  9.288000E+03  1.938455E-14
  9.290000E+03  2.017726E-14
  9.292000E+03  1.815219E-14
  9.294000E+03  1.521373E-14
  9.296000E+03  1.516544E-14
  9.298000E+03  1.608649E-14
  9.300000E+03  1.262967E-14
  9.302000E+03  1.692604E-14
  9.304000E+03  1.967983E-14
  9.306000E+03  1.423888E-14
  9.308000E+03  8.932297E-15
  9.310000E+03  1.622723E-14
  9.312000E+03  1.889249E-14
  9.314000E+03  8.119019E-15
  9.316000E+03  6.448896E-15
  9.318000E+03  1.046303E-14
  9.320000E+03  1.368926E-14
  9.322000E+03  7.401035E-15
  9.324000E+03  6.013681E-15
  9.326000E+03  1.021930E-14
  9.328000E+03  1.537784E-14
  9.330000E+03  1.177638E-14
  9.332000E+03  8.563884E-15
  9.334000E+03  5.527862E-15
  9.336000E+03  7.389187E-15
  9.338000E+03  6.761253E-15
  9.340000E+03  8.577224E-15
  9.342000E+03  1.951828E-15
  9.344000E+03  2.942480E-15
  9.346000E+03  1.157992E-14
  9.348000E+03  1.750627E-14
  9.350000E+03  1.697917E-14
  9.352000E+03  6.263540E-15
  9.354000E+03  6.738207E-15
  9.356000E+03  5.997380E-15
  9.358000E+03  7.841633E-15
  9.360000E+03  1.413875E-14
  9.362000E+03  1.605171E-14
  9.364000E+03  8.764816E-15
  9.366000E+03  8.345798E-15
  9.368000E+03  6.424573E-15
  9.370000E+03  4.520421E-15
  9.372000E+03  1.049662E-14
  9.374000E+03  1.357524E-14
  9.376000E+03  7.739122E-15
  9.378000E+03  6.539026E-15
  9.380000E+03  4.688850E-15
  9.382000E+03  1.326688E-14
  9.384000E+03  1.653393E-14
  9.386000E+03  9.942830E-15
  9.388000E+03  2.121517E-14
  9.390000E+03  2.102821E-14
  9.392000E+03  2.166932E-14
  9.394000E+03  2.163015E-14
  9.396000E+03  2.431438E-14
  9.398000E+03  1.568729E-14
  9.400000E+03  1.617857E-14
  9.402000E+03  1.648982E-14
  9.404000E+03  1.806244E-14
  9.406000E+03  1.987303E-14
  9.408000E+03  1.500207E-14
  9.410000E+03  1.127257E-14
  9.412000E+03  1.790574E-14
  9.414000E+03  2.147289E-14
  9.416000E+03  1.564157E-14
  9.418000E+03  1.917710E-14
  9.420000E+03  1.819524E-14
  9.422000E+03  2.110766E-14
  9.424000E+03  1.873129E-14
  9.426000E+03  7.251940E-15
  9.428000E+03  4.700320E-15
  9.430000E+03  1.193309E-14
  9.432000E+03  2.274226E-14
  9.434000E+03  2.514251E-14
  9.436000E+03  1.736839E-14
  9.438000E+03  1.116694E-14
  9.440000E+03  7.837854E-15
  9.442000E+03  6.464241E-15
  9.444000E+03  1.151011E-14
  9.446000E+03  1.943731E-14
  9.448000E+03  2.198165E-14
  9.450000E+03  1.916608E-14
  9.452000E+03  2.270976E-14
  9.454000E+03  1.141126E-14
  9.456000E+03  1.071411E-14
  9.458000E+03  1.692795E-14
  9.460000E+03  6.526691E-15
  9.462000E+03  1.482753E-14
  9.464000E+03  1.875223E-14
  9.466000E+03  1.751836E-14
  9.468000E+03  1.378662E-14
  9.470000E+03  1.401426E-14
  9.472000E+03  1.614144E-14
  9.474000E+03  1.403876E-14
  9.476000E+03  1.274575E-14
  9.478000E+03  2.073005E-14
  9.480000E+03  1.232676E-14
  9.482000E+03  7.510011E-15
  9.484000E+03  1.871416E-14
  9.486000E+03  1.812904E-14
  9.488000E+03  2.066175E-14
  9.490000E+03  2.484828E-14
  9.492000E+03  2.272351E-14
  9.494000E+03  1.243937E-14
  9.496000E+03  1.025974E-14
  9.498000E+03  1.114138E-14
  9.500000E+03  9.501233E-15
  9.502000E+03  7.057135E-15
  9.504000E+03  1.770173E-14
  9.506000E+03  2.186969E-14
  9.508000E+03  2.265508E-14
  9.510000E+03  2.426587E-14
  9.512000E+03  2.344162E-14
  9.514000E+03  2.102127E-14
  9.516000E+03  2.060338E-14
  9.518000E+03  1.234644E-14
  9.520000E+03  1.085318E-14
  9.522000E+03  1.024360E-14
  9.524000E+03  8.748848E-15
  9.526000E+03  1.493209E-14
  9.528000E+03  1.662655E-14
  9.530000E+03  1.406502E-14
  9.532000E+03  1.789799E-14
  9.534000E+03  2.212446E-14
  9.536000E+03  1.924920E-14
  9.538000E+03  1.674196E-14
  9.540000E+03  1.941703E-14
  9.542000E+03  1.947191E-14
  9.544000E+03  1.801312E-14
  9.546000E+03  1.298904E-14
  9.548000E+03  1.209333E-14
  9.550000E+03  1.767615E-14
  9.552000E+03  1.942663E-14
  9.554000E+03  1.955773E-14
  9.556000E+03  1.290507E-14
  9.558000E+03  1.315378E-14
  9.560000E+03  1.189992E-14
  9.562000E+03  1.398639E-14
  9.564000E+03  2.340916E-14
  9.566000E+03  1.687271E-14
  9.568000E+03  1.135684E-14
  9.570000E+03  1.000189E-14
  9.572000E+03  1.427617E-14
  9.574000E+03  1.540433E-14
  9.576000E+03  1.697101E-14
  9.578000E+03  2.383157E-14
  9.580000E+03  2.200863E-14
  9.582000E+03  2.145369E-14
  9.584000E+03  1.588957E-14
  9.586000E+03  8.648130E-15
  9.588000E+03  1.865588E-14
  9.590000E+03  2.022056E-14
  9.592000E+03  1.562186E-14
  9.594000E+03  1.070758E-14
  9.596000E+03  9.103130E-15
  9.598000E+03  1.035081E-14
  9.600000E+03  1.329294E-14
  9.602000E+03  1.753969E-14
  9.604000E+03  1.485383E-14
  9.606000E+03  1.562122E-14
  9.608000E+03  1.974804E-14
  9.610000E+03  1.749620E-14
  9.612000E+03  1.244676E-14
  9.614000E+03  1.537818E-14
  9.616000E+03  1.588710E-14
